#Wave		#Intensity
1800.5293	-31.11056
1798.05859	6.67494
1795.58789	9.62064
1793.11523	-0.90794
1790.64258	-9.34006
1788.16992	17.99591
1785.69727	39.57245
1783.22266	20.61173
1780.74609	14.21867
1778.26953	-12.38055
1775.79297	-13.51301
1773.31641	-1.18595
1770.83789	25.32513
1768.35742	9.82492
1765.87891	17.35006
1763.39844	-16.98443
1760.91602	1.23854
1758.43555	-13.57897
1755.95117	21.52871
1753.46875	-1.71101
1750.98438	-19.07199
1748.49805	3.54096
1746.01367	-40.04922
1743.52734	-30.93311
1741.03906	25.52644
1738.55078	-8.13078
1736.0625	14.93587
1733.57422	11.34131
1731.08398	-9.54894
1728.5918	8.93784
1726.09961	-24.48851
1723.60742	-37.17804
1721.11523	-5.17304
1718.62109	14.91059
1716.12695	29.74642
1713.63086	-17.20503
1711.13477	-17.48498
1708.63672	16.89412
1706.14063	14.13185
1703.64063	28.06477
1701.14258	33.44878
1698.64258	24.30455
1696.14063	-0.02196
1693.64063	-12.96782
1691.13867	17.2881
1688.63477	14.43241
1686.13086	-30.78868
1683.62695	-20.90768
1681.12109	38.05274
1678.61523	51.31982
1676.10938	-25.44015
1673.60156	7.77554
1671.09375	28.42744
1668.58398	74.22996
1666.07422	100.18073
1663.56445	106.95245
1661.05273	239.97982
1658.54102	272.48116
1656.02734	481.34298
1653.51367	666.29232
1651	816.12134
1648.48438	776.40454
1645.96875	631.77075
1643.45313	489.17131
1640.93555	371.01746
1638.41797	353.09937
1635.89844	333.82615
1633.37891	348.77677
1630.85938	306.36521
1628.33789	360.71301
1625.81641	322.81667
1623.29297	319.09863
1620.76953	342.95162
1618.24609	366.7275
1615.7207	366.75224
1613.19531	404.17562
1610.66992	433.6259
1608.14258	453.13497
1605.61328	394.41907
1603.08594	425.61222
1600.55664	451.46676
1598.02539	478.54907
1595.49414	491.77828
1592.96289	542.96663
1590.42969	524.57959
1587.89648	525.14868
1585.36328	534.83309
1582.82813	571.3042
1580.29297	677.0992
1577.75586	733.03817
1575.21875	729.36019
1572.68164	723.02824
1570.14258	634.26957
1567.60352	584.10059
1565.0625	509.09684
1562.52148	444.56812
1559.98047	453.2065
1557.4375	407.63062
1554.89453	391.44495
1552.34961	421.58801
1549.80469	380.61336
1547.25977	400.31588
1544.71289	317.66449
1542.16602	270.92483
1539.61914	228.14606
1537.07031	279.20648
1534.51953	312.03469
1531.9707	311.04036
1529.41797	259.32721
1526.86719	296.82406
1524.31445	265.41699
1521.76172	309.50747
1519.20703	427.72839
1516.65234	519.96354
1514.0957	606.3737
1511.53906	657.10502
1508.98242	688.42399
1506.42383	577.69983
1503.86523	478.82467
1501.30664	323.69568
1498.74609	204.4315
1496.18555	109.99007
1493.62305	77.28386
1491.06055	88.12801
1488.49609	22.68608
1485.93164	52.58708
1483.36719	34.72544
1480.80078	8.61101
1478.23438	-22.50653
1475.66797	-21.11761
1473.09961	-5.99489
1470.53125	-46.2853
1467.96094	-2.40496
1465.39063	-44.91107
1462.81836	-15.55492
1460.24609	29.45478
1457.67383	29.4589
1455.09961	9.00976
1452.52539	58.40223
1449.95117	53.16737
1447.375	100.32694
1444.79688	40.07304
1442.2207	61.20263
1439.64258	14.27687
1437.0625	30.01381
1434.48242	41.4429
1431.90234	13.19262
1429.32031	13.46021
1426.73828	67.29112
1424.1543	2.41279
1421.57031	77.19189
1418.98633	109.1062
1416.40039	75.08209
1413.81445	38.08037
1411.22656	24.41148
1408.63867	64.20091
1406.05078	80.44905
1403.46094	80.22925
1400.87109	88.54814
1398.2793	160.49478
1395.6875	172.39854
1393.0957	167.85135
1390.50195	213.43555
1387.9082	181.12697
1385.3125	210.4469
1382.7168	240.58341
1380.11914	173.72624
1377.52148	216.38379
1374.92383	192.11975
1372.32422	253.64264
1369.72461	347.23413
1367.125	481.15914
1364.52344	714.08569
1361.91992	699.53784
1359.31836	544.23067
1356.71289	396.20402
1354.10938	284.75289
1351.50391	168.43459
1348.89648	140.24032
1346.29102	88.64982
1343.68164	34.69863
1341.07422	-61.0804
1338.46484	-17.3462
1335.85352	-28.19287
1333.24219	-7.75381
1330.63086	7.07584
1328.01758	20.74894
1325.4043	60.56853
1322.78906	121.4312
1320.17383	136.65798
1317.55859	139.91806
1314.94141	284.73969
1312.32422	335.06999
1309.70508	263.73676
1307.08594	251.46885
1304.4668	164.52103
1301.8457	148.00811
1299.22461	115.10785
1296.60156	84.19267
1293.97852	99.54585
1291.35352	82.68298
1288.72852	35.5206
1286.10352	60.49919
1283.47656	108.88808
1280.84961	85.25075
1278.2207	87.55616
1275.5918	84.19824
1272.96289	69.49658
1270.33203	21.37682
1267.70117	-1.47289
1265.06836	13.53776
1262.43555	15.29767
1259.80078	23.35773
1257.16602	39.592
1254.53125	54.54071
1251.89453	27.27895
1249.25781	46.58975
1246.61914	50.7635
1243.98047	75.03213
1241.3418	47.05263
1238.70117	73.12171
1236.05859	70.85411
1233.41797	84.24108
1230.77539	103.22617
1228.13086	37.38379
1225.48633	24.8776
1222.83984	-23.44545
1220.19531	-47.34462
1217.54688	-24.88133
1214.90039	-22.57084
1212.25	-0.27156
1209.60156	13.78546
1206.95117	15.23137
1204.29883	40.3905
1201.64844	115.51698
1198.99414	79.7619
1196.3418	77.71228
1193.68555	100.59353
1191.03125	115.23271
1188.375	171.6413
1185.71875	184.18132
1183.06055	232.84058
1180.40039	257.01955
1177.74219	247.36816
1175.08203	191.44566
1172.41992	117.98792
1169.75781	96.22359
1167.0957	78.10205
1164.43164	39.31783
1161.76758	98.25493
1159.10156	75.45706
1156.43555	74.34927
1153.76758	13.37778
1151.10156	8.32351
1148.43164	21.8222
1145.76172	35.81603
1143.0918	22.33075
1140.41992	48.50988
1137.74805	98.78153
1135.07617	73.75606
1132.40234	134.30678
1129.72656	169.25601
1127.05273	176.14048
1124.375	159.95715
1121.69922	122.58024
1119.01953	61.55793
1116.3418	79.77212
1113.66211	56.97366
1110.98242	3.7275
1108.30078	-9.97767
1105.61719	-35.54701
1102.93555	-30.28228
1100.25195	-15.85558
1097.56641	-13.29736
1094.88086	-14.56172
1092.19336	-28.29343
1089.50781	27.05683
1086.81836	24.21835
1084.12891	39.79377
1081.43945	57.10418
1078.75	18.77366
1076.05859	-9.15065
1073.36523	-2.01524
1070.67188	-9.77795
1067.97852	-33.03918
1065.2832	-26.81634
1062.58789	-15.15179
1059.89063	14.87882
1057.19336	26.95137
1054.49414	21.0853
1051.79492	31.73838
1049.0957	45.98595
1046.39453	66.28529
1043.69336	116.59389
1040.99023	90.01272
1038.28711	57.22836
1035.58203	94.97666
1032.87695	99.48936
1030.16992	83.06914
1027.46289	75.78619
1024.75586	37.17362
1022.04688	13.2267
1019.33789	5.15902
1016.62695	25.20678
1013.91602	-1.96264
1011.20313	19.18023
1008.49023	81.2496
1005.77734	70.43675
1003.0625	90.76511
1000.34766	88.41468
997.63086	49.35388
994.91406	6.60929
992.19531	24.92121
989.47656	-0.77335
986.75586	-13.671
984.03516	-11.34014
981.31445	0.10795
978.5918	19.44728
975.86719	12.53882
973.14258	4.39422
970.41797	74.20667
967.69141	64.79379
964.96484	47.45967
962.23828	108.63106
959.50977	101.61777
956.7793	107.98345
954.04883	126.50323
951.31836	177.83313
948.58594	147.71681
945.85352	155.89333
943.11914	204.75747
940.38477	204.43648
937.64844	240.54089
934.91211	262.69039
932.17578	300.61631
929.4375	288.22703
926.69727	276.48106
923.95703	285.37474
921.2168	226.467
918.47461	253.00537
915.73242	221.46547
912.98828	211.77427
910.24414	179.7596
907.5	143.58641
904.75391	176.40381
902.00586	107.74019
899.25781	76.6384
896.50977	54.68268
893.75977	59.97823
891.00977	47.2393
888.25781	35.79285
885.50586	-3.91181
882.75195	-39.88886
879.99805	-23.317
877.24219	-9.07466
874.48633	-38.71811
871.73047	-47.77143
868.97266	-34.44518
866.21484	-5.97919
863.45508	0.31821
860.69336	4.31716
857.93359	4.81942
855.16992	22.86774
852.4082	5.57626
849.64453	49.07931
846.87891	14.02707
844.11328	18.73882
841.34766	14.57707
838.58008	23.14788
835.81055	53.43571
833.04102	5.31441
830.27148	40.0584
827.5	50.36098
824.72852	59.60136
821.95508	61.19853
819.18164	18.65289
816.4082	42.09105
813.63086	33.36893
810.85547	61.86705
808.07813	22.95786
805.29883	44.57241
802.52148	-8.94165
799.74023	-1.95902
796.95898	14.71782
794.17773	-12.62656
791.39453	13.28719
788.61133	14.87924
785.82617	39.27029
783.04102	50.08004
780.25586	134.30011
777.4668	231.71157
774.67969	286.32336
771.89063	300.56191
769.09961	244.11873
766.30859	143.82112
763.51758	113.27539
760.72461	9.16169
757.93164	50.80644
755.13672	58.07912
752.3418	28.62807
749.54492	37.28463
746.74805	38.8997
743.94922	20.42626
741.15039	18.04825
738.34961	-9.75322
735.54883	6.37589
732.74805	-4.71236
729.94531	-4.49776
727.14063	-6.02612
724.33594	-41.2722
721.53125	-7.25734
718.72461	-22.9476
715.91797	-23.85631
713.10938	-30.69356
710.30078	-5.64989
707.49023	-3.7016
704.67969	4.68472
701.86719	-1.75702
699.05469	5.88866
696.24023	5.18176
693.42578	5.5502
690.61133	-17.19195
687.79492	4.15944
684.97656	10.04048
682.1582	18.70922
679.33984	37.2167
676.51953	8.4499
673.69727	15.41041
670.875	-7.24437
668.05273	-6.57289
665.22852	52.66528
662.4043	59.92248
659.57813	61.65267
656.75195	74.88139
653.92383	82.56766
651.0957	92.92503
648.26563	98.32143
645.43555	143.32978
642.60352	148.17425
639.77148	186.74184
636.93945	141.81858
634.10547	169.2932
631.26953	170.731
628.43359	198.84507
625.5957	238.40662
622.75781	213.95852
619.91992	280.54152
617.08008	412.36479
614.24023	733.27401
611.39844	619.20337
608.55469	331.07231
605.71289	201.85286
602.86719	132.21438
600.02148	125.64405
597.17578	89.98091
594.32813	51.54537
591.48047	22.64197
588.63086	13.2344
585.78125	50.17113
582.93164	-0.43145
580.07813	41.46407
577.22656	4.79006
574.37305	12.46866
571.51758	23.86838
568.66211	-16.69567
565.80469	-36.97534
562.94727	-26.97183
560.08984	-43.46889
557.23047	-3.24796
554.36914	27.66111
551.50781	18.12881
548.64648	13.06096