#Wave		#Intensity
1800.532227	6878.981445
1799.562500	6999.710449
1798.592773	6980.334473
1797.623047	6940.424316
1796.653320	6910.798340
1795.682617	6968.449707
1794.712891	6748.935547
1793.742188	6832.251465
1792.771484	6805.234375
1791.800781	6742.323730
1790.829102	6787.128906
1789.858398	6821.661621
1788.886719	6904.878418
1787.915039	6621.617188
1786.943359	6648.475098
1785.970703	6834.136230
1784.999023	6753.377930
1784.026367	6598.396973
1783.053711	6653.396484
1782.081055	6782.598145
1781.107422	6561.170410
1780.134766	6618.701660
1779.161133	6768.295410
1778.187500	6641.626953
1777.213867	6471.541016
1776.239258	6546.937500
1775.265625	6448.503418
1774.291016	6503.430664
1773.316406	6560.890137
1772.341797	6424.195801
1771.366211	6568.478027
1770.391602	6426.729492
1769.416016	6310.565430
1768.440430	6426.707520
1767.464844	6259.553223
1766.488281	6393.517578
1765.512695	6295.307129
1764.536133	6523.569336
1763.559570	6280.035645
1762.583008	6332.311523
1761.605469	6320.847168
1760.628906	6207.458984
1759.651367	6106.854004
1758.673828	6207.517578
1757.696289	6114.592773
1756.717773	6103.182129
1755.740234	6193.602051
1754.761719	6054.921875
1753.783203	6203.841797
1752.804688	5940.551758
1751.825195	6132.675781
1750.846680	6072.954102
1749.867188	6130.215820
1748.887695	6162.033203
1747.908203	5939.679199
1746.927734	6065.541016
1745.947266	5970.323242
1744.967773	5867.522949
1743.987305	6003.480469
1743.005859	5860.089844
1742.025391	5737.064453
1741.043945	5786.673340
1740.063477	5841.336426
1739.081055	5961.939453
1738.099609	5795.871094
1737.118164	5893.610352
1736.135742	5742.834473
1735.153320	5810.125000
1734.170898	5750.665527
1733.188477	5736.840820
1732.206055	5745.822266
1731.222656	5724.404785
1730.239258	5867.602051
1729.255859	5628.424316
1728.272461	5746.269043
1727.288086	5659.063965
1726.304688	5627.562012
1725.320313	5671.968750
1724.335938	5536.772461
1723.350586	5611.525391
1722.366211	5633.152344
1721.380859	5541.017578
1720.395508	5504.520996
1719.410156	5574.165039
1718.424805	5519.991699
1717.439453	5463.313965
1716.453125	5424.335938
1715.466797	5486.364746
1714.480469	5487.785156
1713.494141	5368.063965
1712.506836	5493.147461
1711.519531	5383.563477
1710.533203	5339.602051
1709.544922	5336.005859
1708.557617	5367.708008
1707.570313	5364.106934
1706.582031	5282.380371
1705.593750	5432.500000
1704.605469	5209.716309
1703.616211	5208.667480
1702.627930	5343.601074
1701.638672	5231.747070
1700.649414	5361.586914
1699.660156	5229.640137
1698.670898	5205.941406
1697.680664	5036.344238
1696.690430	5294.390137
1695.700195	5190.223145
1694.709961	5055.928223
1693.719727	5110.209473
1692.728516	5146.876953
1691.738281	5148.352539
1690.747070	5132.242188
1689.754883	5013.162598
1688.763672	4969.463379
1687.771484	5056.332520
1686.780273	4990.050781
1685.788086	4921.286621
1684.794922	5030.693359
1683.802734	4884.182129
1682.809570	4983.520020
1681.817383	4992.544922
1680.823242	4913.819824
1679.830078	4897.789551
1678.836914	4987.019043
1677.842773	4860.736328
1676.848633	4742.019043
1675.854492	4881.315918
1674.860352	4777.666504
1673.865234	4934.423340
1672.871094	4760.720215
1671.875977	4777.276855
1670.880859	4741.284668
1669.885742	4747.832520
1668.889648	4694.353027
1667.893555	4663.399902
1666.897461	4707.458008
1665.901367	4758.996094
1664.905273	4608.097168
1663.908203	4844.520996
1662.912109	4718.644531
1661.915039	4520.392578
1660.917969	4684.278320
1659.919922	4603.445801
1658.922852	4535.125488
1657.924805	4591.604004
1656.926758	4530.798340
1655.928711	4557.321289
1654.929688	4506.521973
1653.931641	4533.038574
1652.932617	4492.235840
1651.933594	4526.221680
1650.934570	4547.733887
1649.934570	4584.185547
1648.935547	4481.131836
1647.935547	4385.590820
1646.935547	4464.380859
1645.935547	4431.115723
1644.934570	4425.242188
1643.933594	4538.812500
1642.933594	4490.625000
1641.931641	4492.204102
1640.930664	4381.872559
1639.929688	4358.608887
1638.927734	4345.297363
1637.925781	4289.740234
1636.923828	4249.114258
1635.921875	4372.472656
1634.918945	4279.685059
1633.916016	4119.883789
1632.913086	4280.435547
1631.910156	4339.145020
1630.907227	4176.946777
1629.903320	4143.843750
1628.900391	4202.544922
1627.896484	4162.008301
1626.891602	4171.084961
1625.887695	4227.264648
1624.882813	4236.323730
1623.878906	4069.417725
1622.874023	4147.883789
1621.868164	4161.907227
1620.863281	4148.680176
1619.857422	4063.644287
1618.851563	3986.070557
1617.845703	4076.849609
1616.839844	4038.900879
1615.833008	4062.825439
1614.827148	3940.785156
1613.820313	3999.345703
1612.813477	3981.225342
1611.805664	4022.447266
1610.798828	3957.364746
1609.791016	4092.484131
1608.783203	3933.522461
1607.775391	4051.299316
1606.767578	3986.262695
1605.758789	3795.317871
1604.750000	4117.960938
1603.741211	3877.700439
1602.732422	3908.995117
1601.723633	3885.996094
1600.713867	3870.406738
1599.704102	3795.632324
1598.694336	3863.904297
1597.684570	3885.307861
1596.673828	3980.646240
1595.664063	3881.266113
1594.653320	3789.317871
1593.642578	3896.933350
1592.630859	3738.523193
1591.620117	3838.718262
1590.608398	3685.307373
1589.596680	3797.778320
1588.584961	3708.418457
1587.573242	3722.427002
1586.560547	3714.291260
1585.547852	3693.862305
1584.535156	3698.029541
1583.522461	3623.529053
1582.509766	3664.575439
1581.496094	3774.408936
1580.482422	3675.369873
1579.468750	3799.894043
1578.455078	3688.610840
1577.440430	3552.819336
1576.426758	3625.741211
1575.412109	3632.366943
1574.397461	3653.712402
1573.381836	3689.769043
1572.367188	3448.643799
1571.351563	3563.200684
1570.335938	3621.319336
1569.320313	3549.494873
1568.304688	3568.379150
1567.288086	3565.202881
1566.271484	3598.774902
1565.254883	3406.996094
1564.238281	3460.176758
1563.221680	3476.610840
1562.204102	3500.381348
1561.186523	3328.356445
1560.168945	3376.615234
1559.151367	3361.250000
1558.132813	3465.736328
1557.115234	3381.889404
1556.096680	3398.314697
1555.078125	3458.730957
1554.058594	3450.695068
1553.040039	3366.918701
1552.020508	3283.176270
1551.000977	3338.681396
1549.981445	3279.396973
1548.960938	3388.589600
1547.941406	3331.759521
1546.920898	3248.108643
1545.900391	3332.841553
1544.879883	3256.542236
1543.858398	3248.562012
1542.836914	3406.393555
1541.815430	3261.864990
1540.793945	3346.508057
1539.772461	3284.903809
1538.750000	3225.760986
1537.728516	3225.103271
1536.706055	3146.513428
1535.683594	3104.478516
1534.660156	3206.089844
1533.637695	3278.452637
1532.614258	3124.479980
1531.590820	3196.829346
1530.566406	3132.934814
1529.542969	3321.984131
1528.518555	3226.481201
1527.494141	3104.277100
1526.469727	3178.986572
1525.445313	3178.337646
1524.420898	3080.511963
1523.395508	3169.753418
1522.370117	3040.399414
1521.344727	3192.738770
1520.318359	3172.667236
1519.292969	3045.818115
1518.266602	3079.166504
1517.240234	3066.407959
1516.213867	3056.079590
1515.186523	3067.580322
1514.159180	3103.320557
1513.131836	3020.271484
1512.104492	3094.782227
1511.077148	3043.267334
1510.049805	2928.788574
1509.021484	3010.537598
1507.993164	2942.120361
1506.964844	3014.149170
1505.935547	2902.189697
1504.907227	3061.317383
1503.877930	3029.237793
1502.848633	2936.695313
1501.818359	2853.864990
1500.789063	2889.551758
1499.758789	2975.992432
1498.728516	2820.692871
1497.698242	2822.532471
1496.667969	2916.181152
1495.636719	2886.597900
1494.606445	2977.780029
1493.575195	2870.929443
1492.542969	2865.513916
1491.511719	2744.248047
1490.479492	2842.623291
1489.448242	2832.391113
1488.415039	2896.938232
1487.382813	2828.820068
1486.350586	2830.652100
1485.317383	2866.231934
1484.284180	2771.649902
1483.250977	2853.010010
1482.216797	2739.196045
1481.183594	2779.582031
1480.149414	2779.012695
1479.115234	2763.997559
1478.081055	2845.275146
1477.045898	2746.018555
1476.011719	2731.018799
1474.976563	2723.242188
1473.941406	2681.795654
1472.905273	2743.768555
1471.870117	2560.486084
1470.833984	2696.973389
1469.797852	2787.743164
1468.761719	2808.796143
1467.725586	2654.476807
1466.688477	2709.172852
1465.651367	2638.980957
1464.614258	2768.081055
1463.577148	2709.906982
1462.539063	2634.958008
1461.501953	2581.633057
1460.463867	2621.883057
1459.424805	2611.751953
1458.386719	2699.935303
1457.347656	2649.037598
1456.309570	2653.287598
1455.270508	2554.493408
1454.230469	2635.427979
1453.191406	2701.956787
1452.151367	2710.981689
1451.111328	2597.889893
1450.071289	2571.023926
1449.031250	2644.690918
1447.990234	2625.004883
1446.950195	2653.174805
1445.909180	2635.886475
1444.867188	2697.521973
1443.826172	2560.685059
1442.784180	2658.166992
1441.742188	2554.853271
1440.700195	2458.750244
1439.658203	2599.194092
1438.616211	2615.379150
1437.573242	2555.142334
1436.530273	2456.729980
1435.487305	2470.547119
1434.443359	2548.794189
1433.400391	2488.619629
1432.356445	2547.746338
1431.312500	2537.682373
1430.267578	2422.702393
1429.223633	2403.131836
1428.178711	2457.459717
1427.133789	2445.038818
1426.088867	2468.361816
1425.043945	2453.561523
1423.998047	2407.806396
1422.952148	2495.412354
1421.906250	2425.860840
1420.860352	2363.478027
1419.813477	2339.195313
1418.767578	2372.022217
1417.720703	2331.096680
1416.673828	2373.424072
1415.625977	2408.600830
1414.579102	2389.087402
1413.531250	2279.266846
1412.483398	2361.965332
1411.435547	2254.571045
1410.386719	2322.989014
1409.337891	2353.382324
1408.290039	2369.517578
1407.240234	2302.563721
1406.191406	2266.490234
1405.141602	2263.650391
1404.092773	2225.227295
1403.042969	2322.013428
1401.992188	2127.085693
1400.942383	2257.043701
1399.891602	2185.468018
1398.840820	2158.948975
1397.790039	2274.603516
1396.739258	2174.641357
1395.687500	2252.350342
1394.635742	2138.226074
1393.583984	2182.766357
1392.532227	2161.013916
1391.480469	2222.095947
1390.427734	2273.688721
1389.375000	2202.255615
1388.322266	2246.736084
1387.269531	2151.692871
1386.215820	2198.529053
1385.162109	2216.983643
1384.108398	2211.800293
1383.054688	2227.881592
1382.000977	2123.491211
1380.946289	2170.284424
1379.891602	2094.281738
1378.836914	2082.046631
1377.782227	2112.298096
1376.726563	2116.581299
1375.670898	2116.144287
1374.615234	2155.804443
1373.559570	2051.600342
1372.502930	2081.826416
1371.447266	2161.540771
1370.390625	2151.667480
1369.333984	2130.017090
1368.276367	2061.260986
1367.219727	2030.217041
1366.162109	2022.733276
1365.104492	2137.674561
1364.046875	2033.666382
1362.988281	2063.838867
1361.929688	2065.765137
1360.871094	2041.814941
1359.812500	2050.800293
1358.753906	2080.943848
1357.694336	2057.004883
1356.634766	2068.331543
1355.575195	2013.856323
1354.515625	2083.922119
1353.456055	2013.023560
1352.395508	2127.680420
1351.334961	1969.927856
1350.274414	1934.308350
1349.212891	1992.582642
1348.152344	1999.209839
1347.090820	1980.028198
1346.029297	2054.675049
1344.966797	2014.384277
1343.905273	2009.278320
1342.842773	1969.013306
1341.780273	1907.672729
1340.717773	2015.060059
1339.655273	1958.420288
1338.591797	1932.251465
1337.528320	1938.876343
1336.464844	1840.146362
1335.401367	1980.205322
1334.336914	1961.073730
1333.272461	1841.342896
1332.208008	1976.635986
1331.143555	1882.677246
1330.079102	1931.390381
1329.013672	1905.274780
1327.948242	1909.554565
1326.882813	1860.086182
1325.817383	1763.912109
1324.750977	1913.039185
1323.684570	1933.660767
1322.618164	1940.264404
1321.551758	1960.871582
1320.484375	1841.436768
1319.417969	1862.055542
1318.350586	1817.343994
1317.282227	1767.985962
1316.214844	1837.577759
1315.146484	1942.112671
1314.079102	1678.308594
1313.009766	1911.010498
1311.941406	1819.743408
1310.873047	1782.093262
1309.803711	1888.859863
1308.734375	1844.225098
1307.665039	1846.170410
1306.594727	1827.166504
1305.525391	1859.366821
1304.455078	1756.609009
1303.384766	1793.462646
1302.313477	1788.438965
1301.243164	1762.490601
1300.171875	1752.825806
1299.100586	1836.133789
1298.028320	1786.953857
1296.957031	1823.754883
1295.884766	1783.888916
1294.812500	1788.162842
1293.740234	1787.791382
1292.667969	1789.741211
1291.594727	1800.973633
1290.521484	1756.512451
1289.448242	1661.032471
1288.375000	1746.504883
1287.300781	1771.649902
1286.226563	1741.141968
1285.152344	1685.149292
1284.078125	1703.338623
1283.003906	1723.837402
1281.928711	1637.768188
1280.853516	1753.228760
1279.778320	1676.451294
1278.703125	1678.417725
1277.626953	1715.101807
1276.550781	1649.950317
1275.474609	1776.855835
1274.398438	1658.516357
1273.321289	1736.801392
1272.245117	1775.746948
1271.167969	1685.221436
1270.089844	1557.754272
1269.012695	1608.265991
1267.934570	1520.141968
1266.856445	1672.269897
1265.778320	1671.921753
1264.700195	1653.103271
1263.621094	1668.917236
1262.541992	1647.799194
1261.462891	1635.919189
1260.383789	1624.044067
1259.304688	1667.527344
1258.224609	1692.545044
1257.144531	1643.778320
1256.064453	1599.641602
1254.983398	1606.221680
1253.902344	1617.406982
1252.822266	1596.338257
1251.740234	1536.126587
1250.659180	1595.672852
1249.578125	1659.798462
1248.496094	1643.341187
1247.414063	1553.255005
1246.331055	1532.225342
1245.249023	1561.807983
1244.166016	1508.589600
1243.083008	1577.250977
1242.000000	1528.648926
1240.916016	1505.347656
1239.833008	1562.477661
1238.749023	1479.449463
1237.665039	1499.812012
1236.580078	1538.536621
1235.496094	1565.765747
1234.411133	1519.531616
1233.326172	1553.637817
1232.241211	1551.019043
1231.155273	1507.110718
1230.069336	1506.796021
1228.983398	1499.602539
1227.897461	1448.854614
1226.811523	1489.808350
1225.724609	1411.585083
1224.637695	1491.477173
1223.550781	1502.618530
1222.463867	1447.342285
1221.375977	1515.728638
1220.288086	1494.809692
1219.200195	1510.517944
1218.112305	1409.522217
1217.023438	1441.255493
1215.934570	1450.103271
1214.845703	1479.527954
1213.756836	1499.795166
1212.667969	1467.480469
1211.578125	1430.608643
1210.488281	1393.752075
1209.398438	1464.275879
1208.307617	1445.698608
1207.217773	1463.663574
1206.126953	1490.752563
1205.036133	1385.447998
1203.944336	1453.617432
1202.853516	1446.468872
1201.761719	1430.199097
1200.669922	1379.728027
1199.578125	1479.762085
1198.485352	1468.054565
1197.392578	1435.839722
1196.299805	1415.031494
1195.207031	1423.848022
1194.114258	1341.553467
1193.020508	1298.005737
1191.926758	1391.079712
1190.833008	1431.760986
1189.739258	1392.773071
1188.644531	1406.133179
1187.549805	1469.533569
1186.455078	1441.933716
1185.360352	1407.523682
1184.264648	1282.192261
1183.168945	1500.123413
1182.073242	1295.289673
1180.977539	1320.009888
1179.880859	1406.049683
1178.785156	1330.811768
1177.688477	1366.861328
1176.590820	1346.144287
1175.494141	1327.705444
1174.396484	1402.307617
1173.298828	1442.848999
1172.201172	1372.233643
1171.103516	1290.309448
1170.004883	1407.933472
1168.906250	1382.704102
1167.807617	1318.958984
1166.708984	1352.669067
1165.609375	1313.875122
1164.510742	1343.042236
1163.411133	1383.518799
1162.310547	1285.881714
1161.210938	1321.826294
1160.110352	1307.971313
1159.009766	1339.371216
1157.909180	1284.802612
1156.807617	1395.346436
1155.707031	1349.833008
1154.605469	1293.035767
1153.502930	1353.786377
1152.401367	1342.204102
1151.298828	1303.516968
1150.197266	1300.984619
1149.093750	1352.649414
1147.991211	1329.788208
1146.887695	1349.823975
1145.785156	1288.607910
1144.681641	1249.980347
1143.577148	1308.368774
1142.473633	1346.434448
1141.369141	1312.328613
1140.264648	1321.070313
1139.160156	1221.620483
1138.054688	1282.206543
1136.949219	1225.612793
1135.843750	1337.979614
1134.738281	1290.406006
1133.632813	1386.950928
1132.526367	1379.906128
1131.419922	1357.109863
1130.313477	1264.569336
1129.207031	1316.045288
1128.099609	1336.010986
1126.992188	1322.237671
1125.884766	1285.987793
1124.777344	1314.938110
1123.668945	1409.047241
1122.560547	1296.410156
1121.452148	1359.034790
1120.343750	1327.306519
1119.234375	1318.045532
1118.125000	1333.482544
1117.015625	1319.734985
1115.906250	1332.921021
1114.796875	1204.760620
1113.686523	1325.630493
1112.576172	1273.772461
1111.465820	1304.893433
1110.354492	1266.511108
1109.243164	1275.208862
1108.132813	1292.865479
1107.020508	1270.191162
1105.909180	1225.128906
1104.796875	1189.042725
1103.684570	1291.776001
1102.572266	1349.699707
1101.459961	1264.377441
1100.346680	1277.535034
1099.233398	1239.238525
1098.120117	1268.050659
1097.006836	1225.300293
1095.892578	1265.280518
1094.778320	1184.553345
1093.664063	1233.463257
1092.549805	1244.373413
1091.435547	1241.877319
1090.320313	1205.885376
1089.205078	1194.467651
1088.088867	1196.447876
1086.973633	1234.134399
1085.857422	1298.579834
1084.741211	1278.228760
1083.625000	1188.747192
1082.507813	1195.185669
1081.391602	1277.419434
1080.274414	1183.536621
1079.157227	1212.256104
1078.039063	1265.470703
1076.920898	1158.284912
1075.802734	1180.310181
1074.684570	1157.795654
1073.566406	1153.098877
1072.447266	1217.397461
1071.328125	1179.313110
1070.208984	1219.107666
1069.089844	1205.505005
1067.969727	1234.158447
1066.849609	1245.013794
1065.729492	1173.622070
1064.609375	1202.263794
1063.488281	1259.777222
1062.367188	1223.969116
1061.246094	1212.605835
1060.125000	1196.806519
1059.002930	1234.292603
1057.881836	1207.397705
1056.759766	1231.551514
1055.636719	1255.694946
1054.514648	1215.504028
1053.391602	1259.598877
1052.268555	1161.778442
1051.145508	1205.865967
1050.021484	1267.664307
1048.897461	1327.220581
1047.773438	1233.898926
1046.649414	1235.852539
1045.525391	1228.947876
1044.400391	1215.404663
1043.275391	1254.988159
1042.150391	1383.071533
1041.024414	1276.581177
1039.899414	1395.757568
1038.773438	1446.326660
1037.646484	1470.341797
1036.520508	1558.453247
1035.393555	1531.601807
1034.266602	1681.532471
1033.139648	1716.522827
1032.012695	1804.507080
1030.884766	1799.708252
1029.756836	1865.559692
1028.628906	1955.663330
1027.500977	1913.319092
1026.372070	2001.167847
1025.243164	2115.449951
1024.114258	2095.152588
1022.985352	2050.609131
1021.855469	2136.149414
1020.725586	2151.124512
1019.595703	2229.996094
1018.465820	2253.757080
1017.334961	2268.697266
1016.204102	2277.024414
1015.073242	2375.617188
1013.942383	2480.771484
1012.810547	2544.066895
1011.678711	2547.927490
1010.546875	2639.779053
1009.415039	2670.009521
1008.282227	2759.596924
1007.150391	2717.241211
1006.017578	2918.875488
1004.883789	2962.205322
1003.750977	3135.140381
1002.617188	3226.729736
1001.483398	3239.220703
1000.349609	3357.095947
999.214844	3553.946289
998.080078	3555.385986
996.945313	3890.345703
995.810547	4012.368896
994.674805	4298.836426
993.540039	4471.155762
992.404297	4838.520508
991.267578	5006.267090
990.131836	5450.061035
988.995117	5867.375000
987.858398	6194.700684
986.721680	6629.197754
985.583984	7113.869629
984.446289	7099.222656
983.308594	7401.931641
982.170898	7472.566406
981.033203	7731.312500
979.894531	7639.991211
978.755859	7780.505859
977.617188	7883.792480
976.477539	8135.671387
975.337891	8182.018555
974.198242	7961.786621
973.058594	8215.670898
971.918945	8251.049805
970.778320	8279.862305
969.637695	8426.546875
968.497070	8365.823242
967.355469	8457.873047
966.214844	8493.159180
965.073242	8707.288086
963.930664	8609.481445
962.789063	8703.579102
961.646484	8782.376953
960.503906	9026.770508
959.361328	9229.660156
958.217773	9181.947266
957.075195	9262.751953
955.931641	9382.715820
954.788086	9422.079102
953.643555	9550.663086
952.499023	9751.002930
951.354492	9822.894531
950.209961	10033.964844
949.065430	10294.962891
947.919922	10321.032227
946.774414	10455.777344
945.628906	10560.039063
944.482422	10809.834961
943.336914	11124.695313
942.190430	11365.575195
941.042969	11910.352539
939.896484	11879.588867
938.749023	11855.348633
937.601563	11492.589844
936.454102	11340.435547
935.305664	10908.528320
934.158203	10760.899414
933.009766	10181.861328
931.861328	9412.309570
930.711914	8448.030273
929.562500	7520.998535
928.413086	6325.734863
927.263672	5332.408691
926.114258	4564.709961
924.963867	3741.050293
923.813477	3528.130371
922.663086	3222.247803
921.511719	3033.328369
920.360352	2842.326660
