#Wave		#Intensity
1800.532227	133230.812500
1799.562500	133277.062500
1798.592773	133489.265625
1797.623047	132658.906250
1796.653320	134252.265625
1795.682617	133370.734375
1794.712891	133639.187500
1793.742188	133030.078125
1792.771484	133239.468750
1791.800781	133323.109375
1790.829102	133352.859375
1789.858398	132677.609375
1788.886719	133155.984375
1787.915039	133659.812500
1786.943359	133389.671875
1785.970703	133690.875000
1784.999023	132954.734375
1784.026367	133253.312500
1783.053711	133876.890625
1782.081055	133911.531250
1781.107422	132822.765625
1780.134766	133660.937500
1779.161133	134063.921875
1778.187500	134031.968750
1777.213867	133890.078125
1776.239258	134323.421875
1775.265625	134281.203125
1774.291016	133582.250000
1773.316406	133892.750000
1772.341797	133980.875000
1771.366211	132970.812500
1770.391602	133996.156250
1769.416016	134548.812500
1768.440430	134384.031250
1767.464844	133634.953125
1766.488281	134309.796875
1765.512695	134849.156250
1764.536133	134426.843750
1763.559570	134767.062500
1762.583008	134569.265625
1761.605469	134149.796875
1760.628906	134933.234375
1759.651367	134006.843750
1758.673828	134840.937500
1757.696289	135022.734375
1756.717773	135240.093750
1755.740234	135327.531250
1754.761719	135445.468750
1753.783203	135782.187500
1752.804688	135607.406250
1751.825195	136109.281250
1750.846680	135965.000000
1749.867188	136342.000000
1748.887695	136642.578125
1747.908203	136106.843750
1746.927734	136092.234375
1745.947266	136044.609375
1744.967773	136896.171875
1743.987305	137450.250000
1743.005859	136211.546875
1742.025391	136912.765625
1741.043945	137151.765625
1740.063477	137205.437500
1739.081055	136802.406250
1738.099609	137634.812500
1737.118164	136985.859375
1736.135742	136927.937500
1735.153320	136961.265625
1734.170898	137174.531250
1733.188477	138256.843750
1732.206055	137813.593750
1731.222656	137925.218750
1730.239258	137598.687500
1729.255859	138206.546875
1728.272461	138229.406250
1727.288086	138090.265625
1726.304688	138945.625000
1725.320313	138017.062500
1724.335938	137799.625000
1723.350586	138834.046875
1722.366211	138285.296875
1721.380859	138773.171875
1720.395508	138522.859375
1719.410156	138644.093750
1718.424805	138697.062500
1717.439453	138775.250000
1716.453125	139583.218750
1715.466797	139199.140625
1714.480469	138413.859375
1713.494141	139340.000000
1712.506836	138880.484375
1711.519531	139311.687500
1710.533203	139220.609375
1709.544922	139560.765625
1708.557617	138831.781250
1707.570313	139267.640625
1706.582031	139355.546875
1705.593750	140300.109375
1704.605469	139160.890625
1703.616211	138903.671875
1702.627930	140054.218750
1701.638672	140378.500000
1700.649414	139829.171875
1699.660156	141046.765625
1698.670898	140839.718750
1697.680664	140798.781250
1696.690430	140790.531250
1695.700195	141295.281250
1694.709961	140505.031250
1693.719727	141449.500000
1692.728516	141237.546875
1691.738281	141000.531250
1690.747070	141846.328125
1689.754883	142593.828125
1688.763672	141698.765625
1687.771484	142764.828125
1686.780273	143105.031250
1685.788086	143763.796875
1684.794922	142407.515625
1683.802734	143126.359375
1682.809570	143245.468750
1681.817383	144003.953125
1680.823242	143719.203125
1679.830078	144680.296875
1678.836914	144077.234375
1677.842773	144331.296875
1676.848633	144414.906250
1675.854492	146361.843750
1674.860352	146044.343750
1673.865234	145854.656250
1672.871094	147081.718750
1671.875977	147337.328125
1670.880859	147725.421875
1669.885742	148233.421875
1668.889648	148273.531250
1667.893555	149006.250000
1666.897461	149166.171875
1665.901367	148916.093750
1664.905273	149630.718750
1663.908203	150627.375000
1662.912109	150049.890625
1661.915039	151243.343750
1660.917969	151185.328125
1659.919922	151534.250000
1658.922852	151992.843750
1657.924805	152518.625000
1656.926758	152712.343750
1655.928711	153412.359375
1654.929688	154044.734375
1653.931641	155225.406250
1652.932617	154216.812500
1651.933594	156035.015625
1650.934570	155923.734375
1649.934570	156330.703125
1648.935547	158483.609375
1647.935547	158979.531250
1646.935547	158671.015625
1645.935547	160145.000000
1644.934570	160682.578125
1643.933594	161376.687500
1642.933594	161776.937500
1641.931641	162532.718750
1640.930664	164148.625000
1639.929688	165226.828125
1638.927734	165091.484375
1637.925781	166728.234375
1636.923828	167830.078125
1635.921875	168347.640625
1634.918945	169073.640625
1633.916016	170293.500000
1632.913086	171187.625000
1631.910156	173106.578125
1630.907227	174386.906250
1629.903320	175356.546875
1628.900391	176752.484375
1627.896484	178299.140625
1626.891602	179411.203125
1625.887695	181521.968750
1624.882813	183453.390625
1623.878906	184675.234375
1622.874023	186902.546875
1621.868164	188972.890625
1620.863281	190462.796875
1619.857422	192697.468750
1618.851563	193987.937500
1617.845703	197084.859375
1616.839844	199801.859375
1615.833008	201312.750000
1614.827148	202899.718750
1613.820313	206031.843750
1612.813477	207451.500000
1611.805664	210650.640625
1610.798828	212951.203125
1609.791016	215809.343750
1608.783203	218626.765625
1607.775391	221934.625000
1606.767578	223697.515625
1605.758789	227642.531250
1604.750000	230790.968750
1603.741211	232948.343750
1602.732422	236363.406250
1601.723633	239922.640625
1600.713867	244723.671875
1599.704102	247919.656250
1598.694336	252174.625000
1597.684570	255303.671875
1596.673828	258847.984375
1595.664063	262728.468750
1594.653320	266590.093750
1593.642578	270888.593750
1592.630859	273840.687500
1591.620117	275740.125000
1590.608398	278749.062500
1589.596680	282305.625000
1588.584961	284143.093750
1587.573242	285898.625000
1586.560547	288482.375000
1585.547852	289887.031250
1584.535156	291991.875000
1583.522461	294855.468750
1582.509766	297164.875000
1581.496094	300043.406250
1580.482422	302343.406250
1579.468750	304578.593750
1578.455078	308011.281250
1577.440430	310524.281250
1576.426758	312177.031250
1575.412109	315637.937500
1574.397461	318081.562500
1573.381836	320740.031250
1572.367188	322269.125000
1571.351563	325845.281250
1570.335938	327286.843750
1569.320313	330144.687500
1568.304688	332709.687500
1567.288086	335974.437500
1566.271484	337856.125000
1565.254883	339901.125000
1564.238281	343446.406250
1563.221680	346243.500000
1562.204102	349034.531250
1561.186523	350529.781250
1560.168945	353304.062500
1559.151367	356072.343750
1558.132813	357799.968750
1557.115234	360969.625000
1556.096680	361409.531250
1555.078125	363499.156250
1554.058594	367215.531250
1553.040039	368242.687500
1552.020508	368998.250000
1551.000977	372679.406250
1549.981445	372217.656250
1548.960938	374910.312500
1547.941406	375910.343750
1546.920898	379069.656250
1545.900391	378982.656250
1544.879883	381030.093750
1543.858398	384635.125000
1542.836914	385010.250000
1541.815430	387030.750000
1540.793945	389545.218750
1539.772461	391483.531250
1538.750000	393823.031250
1537.728516	396271.156250
1536.706055	397106.062500
1535.683594	399021.687500
1534.660156	400517.781250
1533.637695	401767.437500
1532.614258	402746.437500
1531.590820	404080.218750
1530.566406	404946.406250
1529.542969	404980.500000
1528.518555	404496.687500
1527.494141	406285.937500
1526.469727	406951.593750
1525.445313	407636.406250
1524.420898	407684.375000
1523.395508	408888.500000
1522.370117	409254.281250
1521.344727	410251.156250
1520.318359	411296.125000
1519.292969	413219.250000
1518.266602	415740.875000
1517.240234	416068.375000
1516.213867	418464.625000
1515.186523	419184.250000
1514.159180	420737.562500
1513.131836	423562.781250
1512.104492	424688.000000
1511.077148	425790.906250
1510.049805	427244.593750
1509.021484	427108.843750
1507.993164	427435.625000
1506.964844	430287.343750
1505.935547	431206.312500
1504.907227	432904.156250
1503.877930	433713.281250
1502.848633	432736.812500
1501.818359	434029.312500
1500.789063	433367.500000
1499.758789	434175.781250
1498.728516	434355.281250
1497.698242	433903.937500
1496.667969	435378.375000
1495.636719	434033.218750
1494.606445	434895.937500
1493.575195	434043.968750
1492.542969	435951.593750
1491.511719	433583.968750
1490.479492	433251.500000
1489.448242	433179.718750
1488.415039	433882.218750
1487.382813	433320.718750
1486.350586	432759.437500
1485.317383	432437.000000
1484.284180	431391.656250
1483.250977	430390.062500
1482.216797	429827.312500
1481.183594	429888.625000
1480.149414	428837.312500
1479.115234	427598.625000
1478.081055	425652.687500
1477.045898	424143.125000
1476.011719	422056.687500
1474.976563	421084.937500
1473.941406	420130.375000
1472.905273	416963.843750
1471.870117	417335.187500
1470.833984	414672.875000
1469.797852	411643.906250
1468.761719	410927.593750
1467.725586	409267.500000
1466.688477	406729.000000
1465.651367	404472.468750
1464.614258	402771.406250
1463.577148	400058.093750
1462.539063	396167.593750
1461.501953	393869.406250
1460.463867	390348.750000
1459.424805	387376.312500
1458.386719	384714.406250
1457.347656	383149.125000
1456.309570	379297.906250
1455.270508	377501.906250
1454.230469	374719.500000
1453.191406	371329.843750
1452.151367	371234.468750
1451.111328	368498.125000
1450.071289	366746.750000
1449.031250	365939.062500
1447.990234	365158.031250
1446.950195	361965.750000
1445.909180	360951.406250
1444.867188	358856.531250
1443.826172	357441.500000
1442.784180	355424.656250
1441.742188	354116.062500
1440.700195	350951.343750
1439.658203	350317.843750
1438.616211	347274.593750
1437.573242	346147.750000
1436.530273	344983.125000
1435.487305	342532.406250
1434.443359	340736.562500
1433.400391	337514.562500
1432.356445	334964.250000
1431.312500	332736.906250
1430.267578	329437.437500
1429.223633	326754.406250
1428.178711	324925.750000
1427.133789	321713.250000
1426.088867	318278.125000
1425.043945	315351.750000
1423.998047	314600.968750
1422.952148	312864.718750
1421.906250	311719.531250
1420.860352	309013.437500
1419.813477	307072.312500
1418.767578	305707.718750
1417.720703	305730.437500
1416.673828	303962.375000
1415.625977	303752.406250
1414.579102	301849.906250
1413.531250	301954.125000
1412.483398	300772.781250
1411.435547	300972.187500
1410.386719	299679.812500
1409.337891	299834.218750
1408.290039	298962.843750
1407.240234	297270.468750
1406.191406	296414.187500
1405.141602	294172.531250
1404.092773	293910.281250
1403.042969	291855.031250
1401.992188	291688.187500
1400.942383	291779.812500
1399.891602	290240.593750
1398.840820	291913.125000
1397.790039	290860.187500
1396.739258	290515.968750
1395.687500	291258.968750
1394.635742	292053.750000
1393.583984	293094.375000
1392.532227	291343.968750
1391.480469	292469.468750
1390.427734	292586.593750
1389.375000	292557.000000
1388.322266	292224.687500
1387.269531	291984.718750
1386.215820	291042.687500
1385.162109	290481.593750
1384.108398	289441.000000
1383.054688	288946.562500
1382.000977	288029.500000
1380.946289	287313.531250
1379.891602	286394.812500
1378.836914	285724.312500
1377.782227	284426.250000
1376.726563	284204.718750
1375.670898	283704.906250
1374.615234	283662.843750
1373.559570	283158.562500
1372.502930	283019.937500
1371.447266	282735.187500
1370.390625	282459.968750
1369.333984	282206.062500
1368.276367	282062.968750
1367.219727	282313.218750
1366.162109	282203.093750
1365.104492	281349.031250
1364.046875	281957.000000
1362.988281	281821.093750
1361.929688	280781.718750
1360.871094	280319.093750
1359.812500	280919.656250
1358.753906	280297.250000
1357.694336	279891.375000
1356.634766	279845.250000
1355.575195	279376.156250
1354.515625	278193.031250
1353.456055	279021.031250
1352.395508	279254.531250
1351.334961	278018.093750
1350.274414	277948.843750
1349.212891	277231.843750
1348.152344	277514.718750
1347.090820	276788.687500
1346.029297	275994.937500
1344.966797	277272.125000
1343.905273	275941.656250
1342.842773	276831.562500
1341.780273	277092.968750
1340.717773	276653.687500
1339.655273	277081.343750
1338.591797	277824.968750
1337.528320	278296.656250
1336.464844	277948.718750
1335.401367	279038.093750
1334.336914	278011.468750
1333.272461	278213.593750
1332.208008	279220.281250
1331.143555	278226.968750
1330.079102	279607.343750
1329.013672	280126.812500
1327.948242	280805.031250
1326.882813	280108.875000
1325.817383	281055.437500
1324.750977	281050.906250
1323.684570	281943.156250
1322.618164	282501.093750
1321.551758	284431.406250
1320.484375	285203.312500
1319.417969	286236.218750
1318.350586	288222.812500
1317.282227	288806.812500
1316.214844	290045.812500
1315.146484	291592.031250
1314.079102	293629.437500
1313.009766	295610.031250
1311.941406	297151.750000
1310.873047	298532.062500
1309.803711	299543.812500
1308.734375	301039.468750
1307.665039	303137.468750
1306.594727	303777.468750
1305.525391	305057.187500
1304.455078	305861.687500
1303.384766	307212.500000
1302.313477	309567.406250
1301.243164	311409.781250
1300.171875	312642.281250
1299.100586	314013.718750
1298.028320	315863.281250
1296.957031	317674.875000
1295.884766	319576.250000
1294.812500	320085.812500
1293.740234	322995.843750
1292.667969	322174.312500
1291.594727	322404.437500
1290.521484	324950.156250
1289.448242	326163.218750
1288.375000	327862.812500
1287.300781	327815.531250
1286.226563	328044.125000
1285.152344	328910.062500
1284.078125	331059.500000
1283.003906	332816.468750
1281.928711	333539.500000
1280.853516	334966.281250
1279.778320	334998.500000
1278.703125	337158.218750
1277.626953	338064.843750
1276.550781	339658.343750
1275.474609	339131.906250
1274.398438	340879.468750
1273.321289	340452.406250
1272.245117	339521.437500
1271.167969	338116.906250
1270.089844	336803.125000
1269.012695	336317.093750
1267.934570	333719.656250
1266.856445	332804.812500
1265.778320	331130.562500
1264.700195	329870.281250
1263.621094	329277.625000
1262.541992	328029.718750
1261.462891	326987.718750
1260.383789	325756.937500
1259.304688	326005.062500
1258.224609	324502.875000
1257.144531	324981.656250
1256.064453	324088.750000
1254.983398	323235.406250
1253.902344	322124.343750
1252.822266	321921.312500
1251.740234	321561.718750
1250.659180	320414.781250
1249.578125	319500.843750
1248.496094	317760.968750
1247.414063	317351.843750
1246.331055	316595.500000
1245.249023	314457.031250
1244.166016	315122.750000
1243.083008	314415.562500
1242.000000	315680.937500
1240.916016	314640.625000
1239.833008	313697.250000
1238.749023	313082.750000
1237.665039	312978.406250
1236.580078	312270.125000
1235.496094	310728.718750
1234.411133	310914.062500
1233.326172	309577.812500
1232.241211	309556.781250
1231.155273	309377.468750
1230.069336	308251.031250
1228.983398	308849.343750
1227.897461	308938.437500
1226.811523	309504.250000
1225.724609	310044.562500
1224.637695	309400.187500
1223.550781	312189.625000
1222.463867	313269.468750
1221.375977	313607.000000
1220.288086	315432.312500
1219.200195	315064.281250
1218.112305	316030.437500
1217.023438	318517.468750
1215.934570	317213.531250
1214.845703	319943.906250
1213.756836	322348.500000
1212.667969	323236.593750
1211.578125	323934.593750
1210.488281	326439.593750
1209.398438	328255.937500
1208.307617	329340.656250
1207.217773	331221.812500
1206.126953	332736.906250
1205.036133	334954.312500
1203.944336	336248.875000
1202.853516	337910.187500
1201.761719	341003.281250
1200.669922	342569.343750
1199.578125	345995.281250
1198.485352	346645.531250
1197.392578	351454.812500
1196.299805	352465.906250
1195.207031	355217.031250
1194.114258	358226.656250
1193.020508	361524.187500
1191.926758	364535.750000
1190.833008	370161.437500
1189.739258	373021.937500
1188.644531	378133.781250
1187.549805	381919.500000
1186.455078	385701.343750
1185.360352	392203.406250
1184.264648	396304.281250
1183.168945	400330.656250
1182.073242	404291.718750
1180.977539	408053.437500
1179.880859	413342.281250
1178.785156	418190.562500
1177.688477	421808.406250
1176.590820	426784.500000
1175.494141	430950.500000
1174.396484	436310.562500
1173.298828	295166.968750
1172.201172	296325.343750
1171.103516	297891.406250
1170.004883	300068.937500
1168.906250	301379.625000
1167.807617	303664.250000
1166.708984	304728.906250
1165.609375	306345.843750
1164.510742	306351.781250
1163.411133	307489.875000
1162.310547	308727.093750
1161.210938	309135.343750
1160.110352	310552.687500
1159.009766	309123.250000
1157.909180	311478.687500
1156.807617	310784.593750
1155.707031	310488.718750
1154.605469	310389.625000
1153.502930	309809.156250
1152.401367	309872.875000
1151.298828	308836.375000
1150.197266	308909.312500
1149.093750	306751.093750
1147.991211	306038.687500
1146.887695	305678.687500
1145.785156	303039.500000
1144.681641	302696.062500
1143.577148	302120.375000
1142.473633	297634.187500
1141.369141	296211.937500
1140.264648	293933.625000
1139.160156	291040.937500
1138.054688	288893.062500
1136.949219	286933.093750
1135.843750	284413.031250
1134.738281	422672.125000
1133.632813	419368.031250
1132.526367	414442.312500
1131.419922	411136.781250
1130.313477	407355.593750
1129.207031	402993.312500
1128.099609	400261.250000
1126.992188	396374.500000
1125.884766	392783.843750
1124.777344	388578.812500
1123.668945	384528.312500
1122.560547	380430.093750
1121.452148	377858.843750
1120.343750	374379.062500
1119.234375	369874.562500
1118.125000	364550.312500
1117.015625	361553.531250
1115.906250	357014.125000
1114.796875	351736.281250
1113.686523	348578.031250
1112.576172	344651.906250
1111.465820	339628.781250
1110.354492	334742.250000
1109.243164	332515.750000
1108.132813	329617.968750
1107.020508	325554.250000
1105.909180	322475.437500
1104.796875	317709.531250
1103.684570	314622.468750
1102.572266	310815.937500
1101.459961	309264.468750
1100.346680	305098.187500
1099.233398	301551.031250
1098.120117	300823.218750
1097.006836	297917.906250
1095.892578	293323.750000
1094.778320	291608.000000
1093.664063	288733.218750
1092.549805	285184.937500
1091.435547	284530.625000
1090.320313	281630.062500
1089.205078	280094.875000
1088.088867	276506.687500
1086.973633	274189.843750
1085.857422	272996.281250
1084.741211	271194.187500
1083.625000	268922.281250
1082.507813	268348.187500
1081.391602	267629.406250
1080.274414	264497.031250
1079.157227	263193.281250
1078.039063	262086.109375
1076.920898	262431.718750
1075.802734	260619.171875
1074.684570	259079.031250
1073.566406	259467.296875
1072.447266	258419.859375
1071.328125	256538.437500
1070.208984	256259.546875
1069.089844	254388.234375
1067.969727	254821.468750
1066.849609	252315.375000
1065.729492	251106.203125
1064.609375	250886.453125
1063.488281	248924.875000
1062.367188	246888.562500
1061.246094	245501.609375
1060.125000	243882.078125
1059.002930	242729.406250
1057.881836	240620.609375
1056.759766	238510.468750
1055.636719	236760.625000
1054.514648	234767.500000
1053.391602	233418.312500
1052.268555	232473.203125
1051.145508	230845.750000
1050.021484	229797.390625
1048.897461	228818.156250
1047.773438	227947.859375
1046.649414	226311.609375
1045.525391	225302.687500
1044.400391	224692.671875
1043.275391	223722.109375
1042.150391	223393.703125
1041.024414	223463.656250
1039.899414	222507.203125
1038.773438	222364.984375
1037.646484	220905.031250
1036.520508	220469.171875
1035.393555	221032.453125
1034.266602	220108.406250
1033.139648	220786.375000
1032.012695	219781.015625
1030.884766	219853.687500
1029.756836	219833.578125
1028.628906	219325.656250
1027.500977	219449.093750
1026.372070	218892.906250
1025.243164	218517.812500
1024.114258	217333.484375
1022.985352	217821.000000
1021.855469	216599.812500
1020.725586	215570.875000
1019.595703	214734.078125
1018.465820	214609.218750
1017.334961	214484.406250
1016.204102	214135.000000
1015.073242	213924.437500
1013.942383	214440.359375
1012.810547	214192.375000
1011.678711	213337.218750
1010.546875	213331.531250
1009.415039	213884.468750
1008.282227	212561.515625
1007.150391	213767.296875
1006.017578	213374.625000
1004.883789	214751.093750
1003.750977	216772.875000
1002.617188	221155.078125
1001.483398	226308.437500
1000.349609	229259.578125
999.214844	231184.312500
998.080078	229445.296875
996.945313	225964.796875
995.810547	223832.718750
