#Wave		#Intensity
1796.204102	-76.870796
1795.239258	-115.864624
1794.274414	-940.878418
1793.309570	324.641327
1792.344727	286.753540
1791.378906	8.542731
1790.413086	379.346863
1789.447266	547.636841
1788.481445	-66.752602
1787.515625	394.329834
1786.548828	177.990814
1785.582031	-504.510712
1784.615234	435.416199
1783.648438	413.920258
1782.680664	715.979492
1781.713867	146.705917
1780.746094	47.222294
1779.778320	566.094604
1778.809570	926.008118
1777.841797	154.551071
1776.873047	293.843140
1775.904297	332.765320
1774.935547	-736.267273
1773.966797	926.044067
1772.997070	-138.555756
1772.028320	-232.799103
1771.058594	578.542664
1770.087891	-282.906006
1769.118164	335.613159
1768.148438	-102.376015
1767.177734	-131.223495
1766.207031	-97.735909
1765.236328	-494.499054
1764.264648	117.206154
1763.293945	0.896405
1762.322266	-43.259953
1761.350586	-151.300659
1760.378906	-579.498352
1759.406250	519.158203
1758.434570	-293.322174
1757.461914	-488.548279
1756.489258	-10.751016
1755.515625	438.380280
1754.542969	561.843994
1753.569336	42.661510
1752.595703	-333.647461
1751.622070	-58.331337
1750.648438	88.350441
1749.674805	295.596039
1748.700195	169.781342
1747.725586	86.643814
1746.750977	283.698853
1745.776367	-572.471741
1744.800781	59.525707
1743.825195	442.692108
1742.849609	97.307816
1741.874023	389.078583
1740.898438	600.650940
1739.921875	135.183914
1738.946289	525.824158
1737.969727	711.320557
1736.992188	-636.381836
1736.015625	21.339064
1735.038086	863.812988
1734.061523	51.517292
1733.083008	-213.820847
1732.105469	220.334747
1731.127930	-62.095928
1730.149414	77.201691
1729.170898	724.526855
1728.192383	248.560226
1727.213867	474.070404
1726.234375	339.968079
1725.255859	375.522949
1724.276367	-138.924744
1723.296875	515.330750
1722.316406	294.318726
1721.336914	530.099548
1720.356445	323.063812
1719.375977	326.279968
1718.395508	499.038635
1717.415039	16.201834
1716.433594	492.405579
1715.452148	135.602661
1714.470703	-71.786835
1713.489258	-457.037262
1712.507813	174.491989
1711.525391	103.044617
1710.542969	239.240997
1709.560547	-131.705597
1708.578125	-203.651566
1707.595703	618.617554
1706.612305	173.953049
1705.628906	-526.297302
1704.645508	335.902832
1703.662109	-113.362846
1702.677734	-180.274353
1701.693359	322.332306
1700.708984	-217.262955
1699.724609	20.118444
1698.740234	-35.579155
1697.754883	250.314102
1696.770508	847.555542
1695.785156	37.351215
1694.798828	150.093124
1693.813477	-1.715130
1692.827148	127.394516
1691.841797	-421.918854
1690.855469	-420.053833
1689.868164	-498.282074
1688.881836	-194.450317
1687.894531	-770.444031
1686.907227	-53.811783
1685.919922	358.405487
1684.932617	-68.059982
1683.944336	-294.242584
1682.957031	151.362503
1681.968750	300.530975
1680.980469	347.611359
1679.991211	443.696014
1679.002930	-476.053833
1678.013672	-92.584259
1677.024414	-561.082825
1676.035156	-325.766296
1675.044922	454.294312
1674.055664	249.736267
1673.065430	796.203247
1672.075195	81.892570
1671.083984	452.954712
1670.093750	1162.585449
1669.102539	1112.201660
1668.111328	837.602905
1667.120117	949.332947
1666.128906	1090.598877
1665.136719	1050.348999
1664.145508	1160.422241
1663.153320	986.257141
1662.160156	2171.572754
1661.167969	1366.856567
1660.174805	2054.324463
1659.182617	2560.846436
1658.188477	2515.039795
1657.195313	2351.408691
1656.202148	1869.417114
1655.208008	2980.808838
1654.213867	2733.964600
1653.219727	2912.911133
1652.225586	3965.618896
1651.230469	3871.172852
1650.236328	3321.453369
1649.241211	4343.323242
1648.245117	4283.922363
1647.250000	3749.596436
1646.253906	4908.496582
1645.258789	4414.606445
1644.262695	5820.748535
1643.265625	5649.395508
1642.269531	5168.706543
1641.272461	5977.387207
1640.275391	5739.547363
1639.278320	7085.289063
1638.281250	6510.979492
1637.283203	6953.025391
1636.286133	7894.546387
1635.288086	8045.036621
1634.289063	7377.571777
1633.291016	7838.267090
1632.292969	8012.518555
1631.293945	8523.583984
1630.294922	8524.024414
1629.294922	8796.455078
1628.295898	7813.864258
1627.295898	8598.078125
1626.295898	8553.284180
1625.295898	9338.200195
1624.295898	8707.041016
1623.294922	9445.401367
1622.294922	9656.749023
1621.293945	9490.389648
1620.291992	10108.063477
1619.291016	10388.115234
1618.289063	10228.555664
1617.288086	10054.993164
1616.286133	11015.229492
1615.283203	11014.125977
1614.281250	11018.853516
1613.278320	11806.451172
1612.275391	11799.909180
1611.272461	12275.694336
1610.269531	12665.161133
1609.265625	13767.211914
1608.261719	14824.908203
1607.257813	14769.245117
1606.253906	15076.420898
1605.250000	16663.531250
1604.245117	17147.556641
1603.240234	19047.208984
1602.235352	18474.091797
1601.230469	21199.109375
1600.224609	21850.642578
1599.219727	22232.900391
1598.213867	22137.861328
1597.207031	22140.011719
1596.201172	22261.833984
1595.194336	21275.888672
1594.188477	20328.343750
1593.181641	20014.919922
1592.173828	19635.503906
1591.166992	19924.556641
1590.159180	20021.345703
1589.151367	19772.904297
1588.143555	20088.570313
1587.135742	19950.400391
1586.126953	19407.906250
1585.118164	19602.097656
1584.109375	19137.892578
1583.100586	19264.394531
1582.091797	18700.734375
1581.082031	18663.302734
1580.072266	18167.884766
1579.062500	18652.242188
1578.052734	18284.130859
1577.041992	17926.611328
1576.032227	18048.072266
1575.021484	17021.986328
1574.009766	18092.957031
1572.999023	16765.710938
1571.987305	17352.552734
1570.975586	16797.650391
1569.963867	17776.796875
1568.952148	17107.634766
1567.940430	16970.705078
1566.927734	16686.775391
1565.915039	17005.964844
1564.902344	16620.062500
1563.888672	16851.714844
1562.875977	15904.411133
1561.862305	15584.456055
1560.848633	16166.621094
1559.834961	16348.801758
1558.820313	16158.116211
1557.805664	15936.131836
1556.791016	16104.962891
1555.776367	16571.115234
1554.761719	15293.360352
1553.746094	15924.678711
1552.730469	15369.366211
1551.714844	15336.946289
1550.699219	14096.611328
1549.683594	15040.694336
1548.666992	14232.929688
1547.650391	13234.861328
1546.633789	13449.886719
1545.617188	13297.948242
1544.599609	12862.406250
1543.582031	13707.460938
1542.564453	11929.422852
1541.546875	12483.930664
1540.528320	12620.213867
1539.510742	12769.106445
1538.492188	13622.295898
1537.473633	12705.777344
1536.454102	12784.491211
1535.435547	12545.950195
1534.416016	12896.438477
1533.396484	13330.106445
1532.376953	12750.553711
1531.356445	12645.053711
1530.335938	13086.551758
1529.316406	13533.119141
1528.294922	13191.575195
1527.274414	13067.585938
1526.252930	12770.673828
1525.232422	11835.440430
1524.210938	12987.271484
1523.188477	10831.707031
1522.166992	10724.035156
1521.144531	11074.486328
1520.122070	10075.756836
1519.099609	10027.276367
1518.077148	9307.111328
1517.053711	9373.491211
1516.030273	9756.362305
1515.006836	9175.843750
1513.983398	8919.244141
1512.958984	8264.005859
1511.935547	9160.469727
1510.911133	8483.912109
1509.885742	8393.391602
1508.861328	7608.247070
1507.835938	7817.046875
1506.811523	7197.801270
1505.786133	7263.618164
1504.759766	7560.088379
1503.734375	7458.598145
1502.708008	7480.951172
1501.681641	7670.820313
1500.655273	7647.289063
1499.627930	6372.486816
1498.601563	7064.728027
1497.574219	6758.015625
1496.546875	6819.928223
1495.518555	6140.424805
1494.491211	6037.953125
1493.462891	6255.259277
1492.434570	5005.220703
1491.406250	5808.750000
1490.376953	4438.473633
1489.348633	4024.837158
1488.319336	3814.638184
1487.290039	4485.097168
1486.259766	3537.472656
1485.230469	3995.196045
1484.200195	3650.230713
1483.169922	3822.734375
1482.139648	4389.131348
1481.108398	3998.730225
1480.077148	3707.649414
1479.045898	3460.298828
1478.014648	3679.126465
1476.983398	3260.815674
1475.951172	2977.887451
1474.918945	3187.406982
1473.886719	3703.323486
1472.854492	3269.031982
1471.821289	3560.734863
1470.789063	2360.470947
1469.755859	2428.469482
1468.721680	2768.814453
1467.688477	2487.770508
1466.654297	1780.678467
1465.620117	2253.962402
1464.585938	2272.253418
1463.551758	1616.839233
1462.516602	2169.824707
1461.481445	2128.563721
1460.446289	2094.773926
1459.411133	1938.595581
1458.375977	1655.308838
1457.339844	2528.529297
1456.303711	1926.047485
1455.267578	2016.082520
1454.230469	2653.985352
1453.194336	1975.866943
1452.157227	2136.258545
1451.120117	2294.489014
1450.082031	1956.067871
1449.044922	2047.729370
1448.006836	2295.538818
1446.968750	2663.520264
1445.930664	2830.252930
1444.891602	1316.545776
1443.852539	1922.812744
1442.813477	2469.289795
1441.774414	2400.158691
1440.735352	1957.772949
1439.695313	2303.842285
1438.655273	2056.381104
1437.615234	2060.813232
1436.575195	2060.906982
1435.534180	2745.733887
1434.493164	1581.462891
1433.452148	2080.479492
1432.411133	1802.606689
1431.370117	1059.144287
1430.328125	646.299744
1429.286133	681.044556
1428.244141	1086.631714
1427.201172	692.301758
1426.159180	179.365112
1425.116211	156.620422
1424.073242	134.466568
1423.029297	-147.291061
1421.986328	421.192657
1420.942383	1044.846191
1419.898438	-15.003994
1418.854492	4.059464
1417.809570	-97.873444
1416.764648	-585.236023
1415.719727	-4.126274
1414.674805	58.029510
1413.629883	-281.687073
1412.583984	372.450165
1411.538086	-96.768845
1410.492188	-105.637573
1409.445313	485.923828
1408.399414	575.993103
1407.352539	226.649155
1406.305664	284.935944
1405.258789	907.520813
1404.210938	1100.299683
1403.163086	1852.353271
1402.115234	1647.286133
1401.067383	1958.671753
1400.019531	1579.583252
1398.970703	1975.623413
1397.921875	2512.431152
1396.873047	3337.126221
1395.823242	2624.486084
1394.774414	2439.847412
1393.724609	3010.489258
1392.674805	2977.061523
1391.624023	3098.656494
1390.574219	2706.776123
1389.523438	2993.830811
1388.472656	3149.028564
1387.420898	3094.262695
1386.370117	2865.276123
1385.318359	3073.065186
1384.266602	2545.505371
1383.214844	2662.996094
1382.162109	2111.731445
1381.110352	2406.413086
1380.057617	1526.389893
1379.004883	2691.047363
1377.951172	1558.098389
1376.897461	2766.910645
1375.844727	2369.254150
1374.790039	2421.756592
1373.736328	1830.446045
1372.681641	2648.090088
1371.627930	2040.339233
1370.572266	2692.192871
1369.517578	2440.978027
1368.462891	1270.724365
1367.407227	380.512970
1366.351563	1635.839844
1365.294922	873.209534
1364.239258	1415.850098
1363.182617	57.265381
1362.125977	371.243225
1361.069336	-140.680252
1360.012695	-505.156555
1358.955078	0.730492
1357.897461	-139.893066
1356.839844	-373.398224
1355.781250	-398.491089
1354.723633	-551.762817
1353.665039	-129.738235
1352.606445	-43.016850
1351.546875	270.651947
1350.488281	91.729233
1349.428711	12.823513
1348.369141	257.142059
1347.308594	-183.404648
1346.249023	-408.772064
1345.188477	-428.484100
1344.127930	269.129608
1343.067383	-316.242828
1342.005859	383.547974
1340.945313	542.314819
1339.883789	1124.512817
1338.821289	577.332520
1337.759766	763.188354
1336.697266	1641.744751
1335.634766	1332.972900
1334.572266	737.371338
1333.508789	1403.627808
1332.446289	1461.909058
1331.382813	2139.577393
1330.319336	1322.300049
1329.254883	2067.783691
1328.191406	1442.919067
1327.126953	211.342407
1326.062500	632.855530
1324.997070	70.981163
1323.932617	57.631226
1322.867188	279.293213
1321.801758	-243.377106
1320.735352	501.740021
1319.669922	-123.406822
1318.603516	191.771500
1317.537109	146.112549
1316.470703	241.750534
1315.403320	408.606171
1314.335938	935.887878
1313.268555	850.635193
1312.201172	1198.043701
1311.132813	660.490356
1310.065430	1070.745361
1308.997070	1034.539673
1307.927734	1297.805420
1306.859375	902.774170
1305.790039	1219.479248
1304.720703	747.788940
1303.651367	1490.349487
1302.582031	2229.041504
1301.511719	2337.920654
1300.441406	1172.912231
1299.371094	1058.520996
1298.299805	961.601501
1297.229492	1435.349243
1296.158203	1335.844482
1295.086914	1330.381226
1294.014648	854.355957
1292.942383	869.693054
1291.871094	716.430420
1290.797852	1284.137695
1289.725586	1125.922241
1288.652344	957.203125
1287.580078	879.946228
1286.505859	1613.410522
1285.432617	501.246277
1284.358398	900.089722
1283.285156	706.109924
1282.209961	1048.637085
1281.135742	1025.701538
1280.060547	283.202637
1278.986328	-425.760071
1277.911133	26.637150
1276.834961	854.771118
1275.759766	255.134689
1274.683594	-350.327454
1273.607422	308.477722
1272.530273	-49.940769
1271.454102	-421.416595
1270.376953	-465.945831
1269.299805	-227.735840
1268.222656	50.336487
1267.144531	-188.530212
1266.066406	665.985596
1264.988281	361.397095
1263.910156	510.115692
1262.831055	848.724365
1261.752930	652.252380
1260.673828	1282.556152
1259.593750	1006.586853
1258.514648	818.831482
1257.434570	733.203369
1256.354492	1300.510132
1255.274414	687.959045
1254.193359	891.932251
1253.112305	987.970032
1252.031250	920.833923
1250.950195	-25.519266
1249.869141	226.070114
1248.787109	860.063416
1247.705078	803.748840
1246.622070	421.158234
1245.540039	1214.323486
1244.457031	190.774139
1243.374023	627.874939
1242.291016	320.261749
1241.207031	325.615448
1240.124023	501.098450
1239.040039	125.460480
1237.955078	-651.670349
1236.871094	-280.398285
1235.786133	-33.058918
1234.701172	-51.968777
1233.616211	-148.812759
1232.530273	-330.354919
1231.445313	160.089066
1230.359375	985.175964
1229.272461	-289.888672
1228.186523	32.939018
1227.099609	241.081161
1226.012695	110.002403
1224.925781	684.306946
1223.837891	649.214539
1222.750000	446.885498
1221.662109	-194.974335
1220.574219	614.036255
1219.486328	246.576431
1218.397461	155.888565
1217.308594	380.563782
1216.218750	133.992538
1215.129883	387.723145
1214.040039	289.205200
1212.950195	-113.461082
1211.860352	200.923004
1210.769531	192.887329
1209.678711	184.463013
1208.587891	-824.143127
1207.497070	-80.091301
1206.406250	359.723938
1205.314453	-227.512772
1204.222656	-71.525551
1203.129883	-570.396118
1202.038086	51.848484
1200.945313	627.766846
1199.852539	129.707565
1198.759766	-373.269684
1197.666016	1528.407715
1196.572266	-407.987732
1195.478516	1152.385498
1194.384766	1327.665649
1193.290039	990.298828
1192.195313	1257.498047
1191.100586	2272.105469
1190.005859	1577.901123
1188.910156	1290.242920
1187.814453	1140.597290
1186.718750	2155.893311
1185.623047	1491.114990
1184.526367	1666.235229
1183.429688	3171.083740
1182.333008	2826.457764
1181.236328	2587.795166
1180.138672	2720.566895
1179.041016	2757.098633
1177.943359	3030.852783
1176.845703	2961.143311
1175.747070	2591.329346
1174.648438	3759.733398
1173.549805	3834.388916
1172.450195	3387.004639
1171.351563	3181.131104
1170.251953	4213.081543
1169.151367	4141.028320
1168.051758	3671.801270
1166.951172	4851.490723
1165.850586	4420.975586
1164.750000	4328.876953
1163.649414	4615.645508
1162.547852	4284.007813
1161.446289	5425.191895
1160.343750	4542.187500
1159.242188	4770.015137
1158.139648	3989.196777
1157.037109	3864.762207
1155.934570	3158.960693
1154.831055	4784.146973
1153.727539	5069.136230
1152.624023	4028.381348
1151.520508	3798.977295
1150.416016	4184.197754
1149.312500	3386.513428
1148.207031	4366.623047
1147.102539	3961.254150
1145.997070	3595.432617
1144.892578	4731.030762
1143.786133	4608.234863
1142.680664	4707.131348
1141.574219	4620.167969
1140.467773	5736.052246
1139.361328	5599.117188
1138.254883	5123.547363
1137.147461	5832.201172
1136.040039	5385.760742
1134.932617	5583.426758
1133.824219	6377.579590
1132.716797	6158.931641
1131.608398	5435.915039
1130.499023	6230.221191
1129.390625	5513.930664
1128.281250	5793.446289
1127.171875	6340.875977
1126.062500	5443.954590
1124.952148	5261.806641
1123.841797	5078.458496
1122.731445	5411.896484
1121.621094	4759.733398
1120.509766	5180.190918
1119.398438	4711.825195
1118.287109	4594.132324
1117.175781	5077.718262
1116.063477	3822.153320
1114.951172	4728.531250
1113.838867	4822.997559
1112.725586	4564.847656
1111.613281	4981.195801
1110.500000	3678.344238
1109.386719	3497.409424
1108.272461	4223.003418
1107.158203	3322.089600
1106.043945	4246.058105
1104.929688	3372.167725
1103.814453	2455.035889
1102.700195	2615.718262
1101.584961	3139.034912
1100.468750	2723.461182
1099.353516	1909.716187
1098.237305	3165.552490
1097.121094	1879.116821
1096.003906	3033.959961
1094.886719	2724.606445
1093.770508	3210.030518
1092.652344	3232.801758
1091.535156	1982.336182
1090.416992	3537.890137
1089.298828	3385.838379
1088.180664	3324.084961
1087.061523	3693.104980
1085.943359	4250.105469
1084.824219	4403.100586
1083.704102	3847.657471
1082.584961	3896.379395
1081.464844	4866.737793
1080.344727	4775.421387
1079.223633	4569.823730
1078.103516	5285.446289
1076.982422	5062.418945
1075.861328	6179.912109
1074.739258	6363.472656
1073.618164	5920.148926
1072.496094	6146.339355
1071.373047	5934.472168
1070.250977	5679.765625
1069.127930	5816.855957
1068.004883	6015.169922
1066.881836	5953.280273
1065.757813	6132.176270
1064.633789	6627.075684
1063.509766	6531.825684
1062.385742	6841.171875
1061.260742	7311.280762
1060.135742	7791.577148
1059.010742	8255.509766
1057.885742	8360.168945
1056.759766	9218.422852
1055.633789	10296.833008
1054.507813	10381.456055
1053.380859	11236.879883
1052.254883	10679.279297
1051.127930	13110.722656
1050.000000	12827.961914
1048.873047	13333.309570
1047.745117	13683.368164
1046.617188	13244.811523
1045.488281	13527.631836
1044.360352	13223.080078
1043.231445	12982.242188
1042.102539	12322.137695
1040.972656	11661.974609
1039.842773	11127.444336
1038.712891	9416.069336
1037.583008	9172.587891
1036.453125	8721.912109
1035.322266	8180.881348
1034.191406	7743.377441
1033.059570	7347.669434
1031.928711	6133.366211
1030.796875	6342.947266
1029.665039	6341.145020
1028.532227	6297.408691
1027.400391	6603.237793
1026.267578	7106.649902
1025.133789	5484.642578
1024.000977	5726.558594
1022.867188	4516.360840
1021.733398	3998.516113
1020.599609	2947.435059
1019.464844	3005.347656
1018.330078	1799.258667
1017.195313	2559.680420
1016.060547	1172.412964
1014.924805	746.421021
1013.789063	1077.185181
1012.653320	1046.302368
1011.516602	1736.565063
1010.380859	2065.257324
1009.244141	2924.069824
1008.106445	3968.826172
1006.969727	4805.417969
1005.832031	7368.895996
1004.694336	13485.417969
1003.555664	19783.119141
1002.417969	26165.755859
1001.279297	25335.677734
1000.139648	18528.871094
999.000977	12254.658203
997.861328	7843.452637
996.721680	5792.125488
995.582031	3925.677734
994.441406	3528.011719
993.300781	2713.997314
992.160156	1868.102295
991.019531	1926.559448
989.877930	1141.124023
988.736328	1126.553345
987.594727	966.431030
986.452148	822.153137
985.310547	576.098816
984.166992	134.541122
983.024414	88.160431
981.881836	-245.116760
980.738281	330.419128
979.593750	-164.868103
978.450195	-47.623772
977.305664	-256.236023
976.161133	269.081940
975.016602	120.542313
973.872070	944.778687
972.726563	-298.240234
971.581055	70.612152
970.434570	-274.968414
969.289063	123.359840
968.142578	-344.448914
966.996094	-374.834778
965.848633	214.219101
964.701172	243.754898
963.553711	293.542969
962.406250	788.790771
961.257813	731.453430
960.110352	1629.030884
958.960938	1273.835083
957.812500	1314.067261
956.663086	1673.549561
955.513672	2107.291748
954.364258	2563.256104
953.214844	2480.599121
952.064453	2727.785889
950.914063	3036.227539
949.762695	2419.163086
948.612305	3274.230225
947.460938	3312.109863
946.309570	3848.068359
945.157227	3050.688721
944.004883	3302.680176
942.852539	3168.539551
941.700195	3428.379883
940.547852	3945.868408
939.394531	3209.331787
938.241211	3730.262207
937.086914	3494.143311
935.932617	3174.722900
934.778320	2892.854004
933.624023	3392.560547
932.469727	3181.202148
931.314453	3283.223145
930.159180	3338.484131
929.002930	3540.914307
927.847656	3754.706543
926.691406	3391.899902
925.535156	2840.444336
924.377930	3183.246582
923.220703	2867.972900
922.063477	2448.065186
920.906250	2999.113037
919.748047	2378.437744
918.589844	1616.756592
917.431641	2382.212891
916.273438	2088.387207
915.114258	998.155579
913.955078	1526.458740
912.795898	1524.602417
911.635742	1166.861694
910.475586	921.416992
909.315430	412.612061
908.155273	496.681152
906.994141	802.102905
