#Wave		#Intensity
1800.529297	1.198700
1798.058594	-27.087023
1795.587891	-21.403191
1793.115234	6.225764
1790.642578	88.955116
1788.169922	113.916893
1785.697266	136.465698
1783.222656	155.543320
1780.746094	13.180243
1778.269531	-86.376137
1775.792969	-47.696793
1773.316406	7.456909
1770.837891	77.023819
1768.357422	-22.840973
1765.878906	5.223800
1763.398438	-78.841972
1760.916016	4.018512
1758.435547	3.866546
1755.951172	46.096256
1753.468750	65.527115
1750.984375	-1.996874
1748.498047	-2.092576
1746.013672	29.145357
1743.527344	69.631783
1741.039063	12.243165
1738.550781	-19.812801
1736.062500	-14.544824
1733.574219	-39.990177
1731.083984	-130.124802
1728.591797	-101.949791
1726.099609	50.455544
1723.607422	10.309265
1721.115234	58.438557
1718.621094	-15.901861
1716.126953	44.948788
1713.630859	97.183846
1711.134766	109.928780
1708.636719	89.202522
1706.140625	66.004959
1703.640625	-104.213722
1701.142578	83.903198
1698.642578	-21.386511
1696.140625	-68.303627
1693.640625	21.809637
1691.138672	70.680061
1688.634766	-42.998428
1686.130859	31.044867
1683.626953	-123.916367
1681.121094	-119.045578
1678.615234	-89.571053
1676.109375	26.099392
1673.601563	81.912262
1671.093750	60.104027
1668.583984	53.042210
1666.074219	208.593628
1663.564453	336.204346
1661.052734	493.410156
1658.541016	669.330261
1656.027344	1084.930664
1653.513672	1534.978271
1651.000000	1866.954956
1648.484375	2123.537598
1645.968750	1810.954102
1643.453125	1671.837036
1640.935547	1258.925903
1638.417969	939.385437
1635.898438	633.054993
1633.378906	766.899658
1630.859375	611.422913
1628.337891	668.619324
1625.816406	658.913818
1623.292969	860.718445
1620.769531	805.166443
1618.246094	974.895996
1615.720703	1134.001831
1613.195313	1071.555054
1610.669922	961.234924
1608.142578	949.888306
1605.613281	952.731262
1603.085938	846.723145
1600.556641	944.972595
1598.025391	1117.407715
1595.494141	1203.635132
1592.962891	1129.982056
1590.429688	1036.202637
1587.896484	1032.431396
1585.363281	1088.134399
1582.828125	1267.103149
1580.292969	1377.757324
1577.755859	1807.931885
1575.218750	1945.935059
1572.681641	1919.584229
1570.142578	1610.341919
1567.603516	1542.089233
1565.062500	1368.577515
1562.521484	1296.688843
1559.980469	1181.347778
1557.437500	1116.603271
1554.894531	1110.257080
1552.349609	1035.010010
1549.804688	926.163940
1547.259766	1044.919067
1544.712891	1156.372559
1542.166016	1197.000977
1539.619141	1327.140625
1537.070313	1591.641602
1534.519531	1624.127563
1531.970703	1762.655151
1529.417969	1803.097778
1526.867188	1758.254272
1524.314453	1593.065918
1521.761719	1487.082520
1519.207031	1638.143677
1516.652344	1702.959717
1514.095703	2239.874023
1511.539063	2496.526123
1508.982422	2616.300537
1506.423828	2340.386230
1503.865234	1932.856079
1501.306641	1421.064209
1498.746094	1022.943176
1496.185547	718.939331
1493.623047	410.794220
1491.060547	412.344391
1488.496094	150.208603
1485.931641	21.778715
1483.367188	63.812698
1480.800781	145.133850
1478.234375	122.118507
1475.667969	235.374603
1473.099609	189.056000
1470.531250	133.534424
1467.960938	60.090096
1465.390625	83.031189
1462.818359	-118.268936
1460.246094	-59.576298
1457.673828	-83.735191
1455.099609	27.008209
1452.525391	31.686420
1449.951172	-11.598837
1447.375000	30.580713
1444.796875	144.608749
1442.220703	39.630581
1439.642578	-156.678329
1437.062500	45.222736
1434.482422	139.228195
1431.902344	135.075256
1429.320313	219.968109
1426.738281	167.213531
1424.154297	406.852112
1421.570313	462.556458
1418.986328	377.836273
1416.400391	484.107880
1413.814453	404.740601
1411.226563	239.997833
1408.638672	443.121796
1406.050781	399.127350
1403.460938	587.105774
1400.871094	668.452332
1398.279297	730.714661
1395.687500	725.858337
1393.095703	772.062744
1390.501953	832.797180
1387.908203	944.501709
1385.312500	963.202637
1382.716797	1045.319580
1380.119141	924.214294
1377.521484	986.381592
1374.923828	1062.978394
1372.324219	1306.318237
1369.724609	1412.625610
1367.125000	1898.082520
1364.523438	2526.878906
1361.919922	2685.531006
1359.318359	2803.941406
1356.712891	2184.094971
1354.109375	1627.740112
1351.503906	1228.487793
1348.896484	899.243896
1346.291016	734.471924
1343.681641	482.930664
1341.074219	542.690125
1338.464844	366.717987
1335.853516	291.953857
1333.242188	354.525848
1330.630859	315.971619
1328.017578	509.944611
1325.404297	690.411377
1322.789063	836.433777
1320.173828	1033.721924
1317.558594	1207.978516
1314.941406	1304.991455
1312.324219	1479.870972
1309.705078	1103.965576
1307.085938	1118.932007
1304.466797	853.439636
1301.845703	574.726990
1299.224609	604.767944
1296.601563	569.182007
1293.978516	556.294006
1291.353516	561.341858
1288.728516	678.208557
1286.103516	619.450439
1283.476563	561.565491
1280.849609	554.771240
1278.220703	443.647827
1275.591797	441.385101
1272.962891	454.142700
1270.332031	406.188416
1267.701172	431.936432
1265.068359	403.619385
1262.435547	388.419525
1259.800781	259.651581
1257.166016	163.898712
1254.531250	170.095993
1251.894531	139.316025
1249.257813	97.078171
1246.619141	129.291992
1243.980469	283.060333
1241.341797	363.004395
1238.701172	406.918518
1236.058594	304.537048
1233.417969	208.657166
1230.775391	205.960968
1228.130859	49.597183
1225.486328	186.938721
1222.839844	17.196758
1220.195313	56.292183
1217.546875	130.022720
1214.900391	71.894455
1212.250000	-107.611847
1209.601563	-3.353518
1206.951172	62.170464
1204.298828	88.055817
1201.648438	241.456024
1198.994141	339.236176
1196.341797	403.955078
1193.685547	497.567047
1191.031250	443.739105
1188.375000	567.907532
1185.718750	587.822998
1183.060547	475.483002
1180.400391	624.362549
1177.742188	607.277771
1175.082031	436.557648
1172.419922	269.540588
1169.757813	-1.346097
1167.095703	44.781368
1164.431641	-17.699244
1161.767578	72.970810
1159.101563	115.796097
1156.435547	51.983849
1153.767578	-136.100220
1151.101563	-132.879776
1148.431641	-40.227875
1145.761719	-124.995773
1143.091797	-54.131596
1140.419922	-103.697838
1137.748047	-32.228626
1135.076172	84.704887
1132.402344	-8.106561
1129.726563	111.269508
1127.052734	123.406441
1124.375000	59.112118
1121.699219	73.783073
1119.019531	66.000053
1116.341797	-102.714828
1113.662109	-160.875992
1110.982422	-49.134739
1108.300781	11.334991
1105.617188	-95.462029
1102.935547	57.536575
1100.251953	19.196327
1097.566406	27.130417
1094.880859	115.600250
1092.193359	213.160843
1089.507813	148.387207
1086.818359	177.091232
1084.128906	57.497471
1081.439453	46.170574
1078.750000	45.838318
1076.058594	31.514242
1073.365234	60.551876
1070.671875	61.721291
1067.978516	-7.465509
1065.283203	21.219610
1062.587891	228.043121
1059.890625	270.266235
1057.193359	240.355820
1054.494141	355.233185
1051.794922	296.505981
1049.095703	438.749878
1046.394531	474.782501
1043.693359	312.543884
1040.990234	375.109406
1038.287109	353.723022
1035.582031	217.161270
1032.876953	379.733734
1030.169922	341.515686
1027.462891	335.424408
1024.755859	261.199951
1022.046875	311.951691
1019.337891	178.789688
1016.626953	12.552790
1013.916016	41.036785
1011.203125	199.791504
1008.490234	146.351242
1005.777344	163.516037
1003.062500	213.614044
1000.347656	163.661392
997.630859	132.916946
994.914063	94.793556
992.195313	5.327482
989.476563	-31.031082
986.755859	-68.344429
984.035156	77.344711
981.314453	-29.623945
978.591797	-43.291065
975.867188	-66.143036
973.142578	-9.509237
970.417969	55.269726
967.691406	19.487366
964.964844	14.736519
962.238281	46.469788
959.509766	126.515053
956.779297	299.531097
954.048828	373.919739
951.318359	298.726715
948.585938	282.803619
945.853516	238.634659
943.119141	272.812744
940.384766	361.595703
937.648438	418.461426
934.912109	492.583862
932.175781	510.270966
929.437500	438.839783
926.697266	612.005676
923.957031	592.425293
921.216797	561.981079
918.474609	478.003113
915.732422	378.681335
912.988281	278.553009
910.244141	139.521072
907.500000	126.702614
904.753906	239.979858
902.005859	203.681076
899.257813	52.391811
896.509766	59.792759
893.759766	134.273331
891.009766	-5.762630
888.257813	60.710159
885.505859	-23.851835
882.751953	-33.201485
879.998047	-65.950836
877.242188	-72.364342
874.486328	-29.873566
871.730469	-57.745090
868.972656	-106.247124
866.214844	-26.417057
863.455078	-74.643120
860.693359	42.374599
857.933594	90.021309
855.169922	150.401535
852.408203	111.762512
849.644531	191.319443
846.878906	88.158951
844.113281	280.533203
841.347656	152.540894
838.580078	306.419922
835.810547	249.004425
833.041016	220.577759
830.271484	297.520294
827.500000	312.597076
824.728516	332.345459
821.955078	377.417114
819.181641	296.080170
816.408203	358.579163
813.630859	290.259827
810.855469	393.481293
808.078125	227.879990
805.298828	335.948944
802.521484	371.582428
799.740234	355.455566
796.958984	350.293915
794.177734	321.178894
791.394531	266.345886
788.611328	305.682556
785.826172	388.129089
783.041016	290.158112
780.255859	535.616028
777.466797	740.927551
774.679688	1064.190430
771.890625	1263.357300
769.099609	1120.779297
766.308594	807.193726
763.517578	500.250610
760.724609	326.551300
757.931641	194.154877
755.136719	240.236450
752.341797	354.163635
749.544922	206.404083
746.748047	242.281479
743.949219	49.608665
741.150391	178.355850
738.349609	118.645973
735.548828	79.566505
732.748047	159.737183
729.945313	141.376022
727.140625	131.147339
724.335938	117.488579
721.531250	-0.785336
718.724609	-25.716963
715.917969	54.120422
713.109375	-0.784782
710.300781	61.421398
707.490234	148.465424
704.679688	-69.213142
701.867188	50.683338
699.054688	51.029793
696.240234	-70.715981
693.425781	78.336586
690.611328	-33.588406
687.794922	-87.973274
684.976563	-15.063310
682.158203	107.254410
679.339844	-79.659325
676.519531	26.645897
673.697266	9.274787
670.875000	-84.017334
668.052734	-30.004416
665.228516	-75.724136
662.404297	66.271446
659.578125	130.561432
656.751953	210.589859
653.923828	133.746353
651.095703	131.699966
648.265625	137.502884
645.435547	199.528152
642.603516	141.838638
639.771484	110.494331
636.939453	248.732742
634.105469	29.249016
631.269531	46.134247
628.433594	5.909990
625.595703	-11.474684
622.757813	132.605576
619.919922	200.308838
617.080078	431.995026
614.240234	1342.066162
611.398438	1714.500244
608.554688	1036.533569
605.712891	376.707642
602.867188	313.706085
600.021484	264.148438
597.175781	73.228012
594.328125	-30.597256
591.480469	54.931297
588.630859	-10.271680
585.781250	-45.138893
582.931641	49.946938
580.078125	-23.641127
577.226563	25.853489
574.373047	27.411308
571.517578	-41.488369
568.662109	100.971939
565.804688	-96.171204
562.947266	-30.338579
560.089844	43.123779
557.230469	-3.630899
554.369141	9.877473
551.507813	-5.883795
548.646484	26.723938
