#Wave		#Intensity
1800.532227	150230.484375
1799.562500	150882.937500
1798.592773	150708.968750
1797.623047	150578.703125
1796.653320	150476.734375
1795.682617	150764.906250
1794.712891	150739.906250
1793.742188	151192.109375
1792.771484	150687.343750
1791.800781	151100.890625
1790.829102	151193.750000
1789.858398	150496.984375
1788.886719	151904.765625
1787.915039	150890.359375
1786.943359	151572.421875
1785.970703	151408.906250
1784.999023	151560.453125
1784.026367	151688.875000
1783.053711	151184.937500
1782.081055	151454.140625
1781.107422	151682.281250
1780.134766	150761.593750
1779.161133	151424.625000
1778.187500	152222.921875
1777.213867	151420.250000
1776.239258	151783.625000
1775.265625	150605.656250
1774.291016	151564.421875
1773.316406	151523.859375
1772.341797	151674.875000
1771.366211	151634.281250
1770.391602	152127.343750
1769.416016	151576.109375
1768.440430	152502.859375
1767.464844	151012.687500
1766.488281	152245.312500
1765.512695	151946.984375
1764.536133	151796.671875
1763.559570	152520.984375
1762.583008	152584.734375
1761.605469	151978.140625
1760.628906	152133.703125
1759.651367	152554.156250
1758.673828	152194.984375
1757.696289	152521.015625
1756.717773	152136.515625
1755.740234	152370.765625
1754.761719	153238.640625
1753.783203	153856.796875
1752.804688	153067.796875
1751.825195	152418.984375
1750.846680	153550.625000
1749.867188	152167.156250
1748.887695	153229.734375
1747.908203	153465.859375
1746.927734	153193.656250
1745.947266	153195.953125
1744.967773	153942.468750
1743.987305	153776.968750
1743.005859	153548.062500
1742.025391	152933.390625
1741.043945	154283.359375
1740.063477	153569.796875
1739.081055	153681.046875
1738.099609	153967.250000
1737.118164	154654.015625
1736.135742	154600.140625
1735.153320	154173.640625
1734.170898	154492.421875
1733.188477	153731.625000
1732.206055	154785.046875
1731.222656	154024.468750
1730.239258	154510.140625
1729.255859	154671.531250
1728.272461	154827.765625
1727.288086	154530.921875
1726.304688	154368.281250
1725.320313	155425.093750
1724.335938	154374.531250
1723.350586	154732.937500
1722.366211	154625.984375
1721.380859	154190.453125
1720.395508	154955.546875
1719.410156	155012.828125
1718.424805	154711.343750
1717.439453	154831.781250
1716.453125	154909.234375
1715.466797	154476.640625
1714.480469	155099.343750
1713.494141	154515.437500
1712.506836	154855.281250
1711.519531	155540.593750
1710.533203	154803.062500
1709.544922	155581.390625
1708.557617	154960.109375
1707.570313	155256.625000
1706.582031	156097.375000
1705.593750	155511.609375
1704.605469	155218.312500
1703.616211	154512.046875
1702.627930	155324.531250
1701.638672	155910.093750
1700.649414	154952.375000
1699.660156	155303.703125
1698.670898	153946.406250
1697.680664	154491.484375
1696.690430	155494.093750
1695.700195	156322.781250
1694.709961	155956.906250
1693.719727	154844.625000
1692.728516	156054.921875
1691.738281	155822.453125
1690.747070	156459.281250
1689.754883	156580.953125
1688.763672	155788.531250
1687.771484	157225.828125
1686.780273	156995.843750
1685.788086	157232.718750
1684.794922	157627.562500
1683.802734	157967.046875
1682.809570	158434.296875
1681.817383	157494.609375
1680.823242	158335.296875
1679.830078	158488.859375
1678.836914	158537.078125
1677.842773	159073.859375
1676.848633	158380.437500
1675.854492	159803.609375
1674.860352	159318.140625
1673.865234	160347.484375
1672.871094	159827.046875
1671.875977	160633.125000
1670.880859	160490.609375
1669.885742	159807.828125
1668.889648	161953.937500
1667.893555	161293.625000
1666.897461	161943.546875
1665.901367	162653.203125
1664.905273	162053.093750
1663.908203	163499.453125
1662.912109	163693.750000
1661.915039	163420.937500
1660.917969	163952.234375
1659.919922	164675.546875
1658.922852	164564.906250
1657.924805	164891.000000
1656.926758	164972.453125
1655.928711	165562.718750
1654.929688	165978.171875
1653.931641	165987.015625
1652.932617	166023.265625
1651.933594	166159.203125
1650.934570	166848.265625
1649.934570	167776.218750
1648.935547	168262.890625
1647.935547	168194.015625
1646.935547	168643.046875
1645.935547	170520.781250
1644.934570	170687.906250
1643.933594	170844.984375
1642.933594	171725.968750
1641.931641	171952.406250
1640.930664	173131.218750
1639.929688	174580.562500
1638.927734	174806.250000
1637.925781	176704.500000
1636.923828	176850.125000
1635.921875	177790.703125
1634.918945	178783.031250
1633.916016	180328.734375
1632.913086	180493.343750
1631.910156	182038.062500
1630.907227	182361.078125
1629.903320	183999.062500
1628.900391	184797.843750
1627.896484	186144.453125
1626.891602	187341.718750
1625.887695	187826.921875
1624.882813	189806.640625
1623.878906	192804.156250
1622.874023	192980.656250
1621.868164	194621.187500
1620.863281	195753.296875
1619.857422	198707.500000
1618.851563	199870.484375
1617.845703	202914.234375
1616.839844	202905.281250
1615.833008	205697.250000
1614.827148	207087.890625
1613.820313	209816.015625
1612.813477	212394.656250
1611.805664	213071.031250
1610.798828	215959.390625
1609.791016	219353.187500
1608.783203	221305.125000
1607.775391	224807.593750
1606.767578	227923.343750
1605.758789	229519.187500
1604.750000	233054.859375
1603.741211	235354.937500
1602.732422	238557.281250
1601.723633	241494.312500
1600.713867	244232.781250
1599.704102	247724.828125
1598.694336	250081.156250
1597.684570	253804.765625
1596.673828	257558.890625
1595.664063	261089.703125
1594.653320	264594.406250
1593.642578	268908.125000
1592.630859	270599.625000
1591.620117	274363.718750
1590.608398	276631.906250
1589.596680	280464.593750
1588.584961	283520.531250
1587.573242	286132.343750
1586.560547	290135.343750
1585.547852	292479.125000
1584.535156	296152.156250
1583.522461	299870.375000
1582.509766	302925.937500
1581.496094	305491.218750
1580.482422	309902.968750
1579.468750	313691.468750
1578.455078	317340.843750
1577.440430	321315.312500
1576.426758	324652.343750
1575.412109	326866.375000
1574.397461	331148.062500
1573.381836	333762.187500
1572.367188	336870.687500
1571.351563	339870.000000
1570.335938	343059.312500
1569.320313	345543.812500
1568.304688	347532.187500
1567.288086	349453.593750
1566.271484	353973.437500
1565.254883	356159.687500
1564.238281	357727.906250
1563.221680	359630.906250
1562.204102	362637.062500
1561.186523	364131.968750
1560.168945	366316.281250
1559.151367	367875.843750
1558.132813	370471.781250
1557.115234	372093.406250
1556.096680	373983.312500
1555.078125	375153.750000
1554.058594	377550.500000
1553.040039	380334.750000
1552.020508	380662.812500
1551.000977	382421.906250
1549.981445	384749.218750
1548.960938	386831.406250
1547.941406	387365.250000
1546.920898	389611.968750
1545.900391	391628.406250
1544.879883	392509.718750
1543.858398	395412.437500
1542.836914	397058.187500
1541.815430	398340.031250
1540.793945	401736.937500
1539.772461	402261.812500
1538.750000	405732.031250
1537.728516	407493.250000
1536.706055	409767.625000
1535.683594	410738.343750
1534.660156	412631.312500
1533.637695	414988.312500
1532.614258	415650.718750
1531.590820	417470.875000
1530.566406	418830.562500
1529.542969	420449.875000
1528.518555	421628.406250
1527.494141	423015.500000
1526.469727	423779.812500
1525.445313	425746.593750
1524.420898	428315.062500
1523.395508	427596.093750
1522.370117	428623.468750
1521.344727	429225.468750
1520.318359	431388.093750
1519.292969	432447.937500
1518.266602	432915.281250
1517.240234	432984.562500
1516.213867	432983.437500
1515.186523	436542.125000
1514.159180	434894.031250
1513.131836	436829.187500
1512.104492	437513.031250
1511.077148	440103.468750
1510.049805	439589.593750
1509.021484	441853.937500
1507.993164	442431.968750
1506.964844	290469.562500
1505.935547	290741.812500
1504.907227	290648.468750
1503.877930	291914.968750
1502.848633	291971.375000
1501.818359	291079.718750
1500.789063	290952.468750
1499.758789	289669.718750
1498.728516	289334.906250
1497.698242	289720.375000
1496.667969	288518.312500
1495.636719	438712.156250
1494.606445	437738.500000
1493.575195	437233.625000
1492.542969	436480.281250
1491.511719	434081.156250
1490.479492	432264.531250
1489.448242	432079.562500
1488.415039	429844.343750
1487.382813	428996.718750
1486.350586	428677.406250
1485.317383	430195.125000
1484.284180	430627.625000
1483.250977	430864.750000
1482.216797	430027.281250
1481.183594	430960.468750
1480.149414	431211.750000
1479.115234	431513.468750
1478.081055	430936.437500
1477.045898	430775.937500
1476.011719	429963.437500
1474.976563	429042.968750
1473.941406	428678.437500
1472.905273	426193.093750
1471.870117	424062.187500
1470.833984	422150.843750
1469.797852	421018.906250
1468.761719	419913.843750
1467.725586	418213.437500
1466.688477	415932.500000
1465.651367	413088.156250
1464.614258	410569.093750
1463.577148	409404.750000
1462.539063	405819.531250
1461.501953	403516.937500
1460.463867	402918.437500
1459.424805	400761.250000
1458.386719	398580.937500
1457.347656	397415.562500
1456.309570	396440.000000
1455.270508	394961.593750
1454.230469	391593.437500
1453.191406	390772.906250
1452.151367	388637.906250
1451.111328	386673.750000
1450.071289	386958.250000
1449.031250	386187.125000
1447.990234	386040.812500
1446.950195	384229.468750
1445.909180	383452.125000
1444.867188	383024.218750
1443.826172	381881.593750
1442.784180	380447.781250
1441.742188	380295.531250
1440.700195	379600.937500
1439.658203	378252.000000
1438.616211	376953.781250
1437.573242	375894.843750
1436.530273	373704.687500
1435.487305	371618.031250
1434.443359	370128.812500
1433.400391	368516.156250
1432.356445	368166.062500
1431.312500	366826.281250
1430.267578	364817.000000
1429.223633	365280.781250
1428.178711	363482.343750
1427.133789	363293.218750
1426.088867	363413.875000
1425.043945	363396.281250
1423.998047	363824.062500
1422.952148	364082.562500
1421.906250	365014.687500
1420.860352	365741.687500
1419.813477	367931.843750
1418.767578	369928.375000
1417.720703	370035.406250
1416.673828	371735.750000
1415.625977	372553.250000
1414.579102	372730.937500
1413.531250	374489.031250
1412.483398	374138.656250
1411.435547	372251.312500
1410.386719	372500.062500
1409.337891	371929.406250
1408.290039	371361.343750
1407.240234	370541.843750
1406.191406	368526.562500
1405.141602	368080.500000
1404.092773	367897.906250
1403.042969	366823.562500
1401.992188	367122.656250
1400.942383	365520.187500
1399.891602	365252.843750
1398.840820	364291.250000
1397.790039	362642.906250
1396.739258	361729.562500
1395.687500	360750.250000
1394.635742	357185.593750
1393.583984	356342.531250
1392.532227	352950.593750
1391.480469	349649.968750
1390.427734	347976.125000
1389.375000	346688.500000
1388.322266	344247.281250
1387.269531	342852.156250
1386.215820	341729.437500
1385.162109	339510.500000
1384.108398	339284.468750
1383.054688	336296.718750
1382.000977	336817.843750
1380.946289	337636.281250
1379.891602	332147.906250
1378.836914	332079.343750
1377.782227	330535.718750
1376.726563	329941.281250
1375.670898	328394.000000
1374.615234	325861.406250
1373.559570	325020.625000
1372.502930	322463.812500
1371.447266	323559.312500
1370.390625	322582.781250
1369.333984	321074.156250
1368.276367	320600.281250
1367.219727	320567.031250
1366.162109	321904.218750
1365.104492	320872.468750
1364.046875	320599.031250
1362.988281	320019.750000
1361.929688	320638.281250
1360.871094	320108.593750
1359.812500	320070.656250
1358.753906	321389.437500
1357.694336	320685.906250
1356.634766	320518.531250
1355.575195	320767.125000
1354.515625	319963.093750
1353.456055	320437.156250
1352.395508	319934.093750
1351.334961	318947.531250
1350.274414	318738.343750
1349.212891	319930.375000
1348.152344	318681.562500
1347.090820	319952.843750
1346.029297	319612.218750
1344.966797	319879.062500
1343.905273	319735.500000
1342.842773	320119.375000
1341.780273	321438.156250
1340.717773	320417.968750
1339.655273	320302.437500
1338.591797	319748.968750
1337.528320	320956.625000
1336.464844	319714.906250
1335.401367	319913.187500
1334.336914	320293.906250
1333.272461	319003.875000
1332.208008	318767.062500
1331.143555	318518.593750
1330.079102	317211.000000
1329.013672	317493.593750
1327.948242	316322.281250
1326.882813	316303.468750
1325.817383	316413.125000
1324.750977	314418.156250
1323.684570	314301.593750
1322.618164	312464.281250
1321.551758	313053.156250
1320.484375	310479.312500
1319.417969	310097.593750
1318.350586	309452.375000
1317.282227	309665.781250
1316.214844	309363.687500
1315.146484	310075.906250
1314.079102	308337.937500
1313.009766	310392.406250
1311.941406	309048.812500
1310.873047	310088.906250
1309.803711	310036.187500
1308.734375	311809.093750
1307.665039	311963.218750
1306.594727	311356.156250
1305.525391	314028.218750
1304.455078	314649.375000
1303.384766	315968.125000
1302.313477	317388.625000
1301.243164	319692.093750
1300.171875	320241.750000
1299.100586	321321.093750
1298.028320	322785.687500
1296.957031	324667.843750
1295.884766	326981.250000
1294.812500	328673.625000
1293.740234	330012.343750
1292.667969	331434.093750
1291.594727	332688.093750
1290.521484	335059.968750
1289.448242	335751.250000
1288.375000	335874.000000
1287.300781	337432.062500
1286.226563	338639.375000
1285.152344	340328.281250
1284.078125	341446.406250
1283.003906	340872.625000
1281.928711	340414.875000
1280.853516	341490.531250
1279.778320	341229.625000
1278.703125	338674.593750
1277.626953	336708.500000
1276.550781	334794.125000
1275.474609	335418.562500
1274.398438	331932.281250
1273.321289	330461.750000
1272.245117	326214.875000
1271.167969	324808.531250
1270.089844	322811.062500
1269.012695	322200.843750
1267.934570	320481.968750
1266.856445	319264.968750
1265.778320	317695.156250
1264.700195	315498.000000
1263.621094	315236.093750
1262.541992	314143.437500
1261.462891	314161.093750
1260.383789	312778.437500
1259.304688	311463.218750
1258.224609	310388.343750
1257.144531	310496.562500
1256.064453	309327.812500
1254.983398	308184.843750
1253.902344	309461.562500
1252.822266	309210.500000
1251.740234	309993.562500
1250.659180	308890.500000
1249.578125	308250.593750
1248.496094	309615.625000
1247.414063	309748.968750
1246.331055	308752.625000
1245.249023	307966.000000
1244.166016	307462.531250
1243.083008	306899.468750
1242.000000	305552.781250
1240.916016	305755.625000
1239.833008	304889.937500
1238.749023	303307.812500
1237.665039	303448.968750
1236.580078	302517.625000
1235.496094	303253.468750
1234.411133	302639.281250
1233.326172	301598.500000
1232.241211	302421.187500
1231.155273	301761.625000
1230.069336	301301.875000
1228.983398	299714.156250
1227.897461	298773.531250
1226.811523	298967.843750
1225.724609	299017.718750
1224.637695	297516.468750
1223.550781	298022.406250
1222.463867	297101.375000
1221.375977	297524.687500
1220.288086	297219.906250
1219.200195	297265.375000
1218.112305	296196.437500
1217.023438	295926.375000
1215.934570	297053.875000
1214.845703	297078.687500
1213.756836	298299.187500
1212.667969	298211.687500
1211.578125	299797.062500
1210.488281	301390.906250
1209.398438	303539.156250
1208.307617	304903.093750
1207.217773	308709.718750
1206.126953	308562.968750
1205.036133	311974.593750
1203.944336	313410.875000
1202.853516	315804.781250
1201.761719	317278.375000
1200.669922	320017.062500
1199.578125	321201.875000
1198.485352	323389.156250
1197.392578	325256.437500
1196.299805	325625.875000
1195.207031	326095.375000
1194.114258	328405.000000
1193.020508	329417.906250
1191.926758	330277.843750
1190.833008	332764.937500
1189.739258	335501.281250
1188.644531	337453.750000
1187.549805	339143.781250
1186.455078	343457.687500
1185.360352	345457.250000
1184.264648	348353.906250
1183.168945	350981.156250
1182.073242	353030.062500
1180.977539	356373.125000
1179.880859	358226.937500
1178.785156	361753.687500
1177.688477	364890.687500
1176.590820	367894.656250
1175.494141	370992.687500
1174.396484	374082.593750
1173.298828	375056.781250
1172.201172	377130.625000
1171.103516	379219.437500
1170.004883	382753.843750
1168.906250	385105.781250
1167.807617	389106.500000
1166.708984	389183.500000
1165.609375	391507.593750
1164.510742	394648.312500
1163.411133	395317.281250
1162.310547	397928.343750
1161.210938	397921.781250
1160.110352	399019.531250
1159.009766	402530.812500
1157.909180	403403.125000
1156.807617	404270.531250
1155.707031	404343.937500
1154.605469	405436.781250
1153.502930	406276.031250
1152.401367	406066.437500
1151.298828	406033.125000
1150.197266	406065.281250
1149.093750	405794.843750
1147.991211	405314.500000
1146.887695	404188.750000
1145.785156	402384.187500
1144.681641	402207.125000
1143.577148	398648.687500
1142.473633	397103.437500
1141.369141	394683.937500
1140.264648	391442.593750
1139.160156	388171.031250
1138.054688	384346.468750
1136.949219	382584.937500
1135.843750	378281.093750
1134.738281	375668.031250
1133.632813	373695.468750
1132.526367	370021.937500
1131.419922	367184.875000
1130.313477	364159.968750
1129.207031	360933.875000
1128.099609	357560.625000
1126.992188	354944.375000
1125.884766	351027.468750
1124.777344	347098.687500
1123.668945	342191.750000
1122.560547	338929.250000
1121.452148	333814.875000
1120.343750	329659.375000
1119.234375	325853.656250
1118.125000	320374.781250
1117.015625	316595.000000
1115.906250	312534.062500
1114.796875	306814.625000
1113.686523	302530.875000
1112.576172	299002.406250
1111.465820	296506.750000
1110.354492	293063.937500
1109.243164	288907.625000
1108.132813	286718.125000
1107.020508	284197.968750
1105.909180	281150.312500
1104.796875	278518.156250
1103.684570	275737.093750
1102.572266	274477.000000
1101.459961	269775.625000
1100.346680	268123.500000
1099.233398	265539.281250
1098.120117	263038.906250
1097.006836	260971.078125
1095.892578	258620.203125
1094.778320	255608.750000
1093.664063	253150.468750
1092.549805	250411.718750
1091.435547	248250.390625
1090.320313	246744.250000
1089.205078	244336.734375
1088.088867	242222.656250
1086.973633	242102.343750
1085.857422	239427.328125
1084.741211	237674.718750
1083.625000	236058.875000
1082.507813	235545.234375
1081.391602	234322.875000
1080.274414	233573.531250
1079.157227	231445.093750
1078.039063	231360.578125
1076.920898	229061.968750
1075.802734	228565.968750
1074.684570	228237.140625
1073.566406	227465.453125
1072.447266	226135.468750
1071.328125	225355.625000
1070.208984	224518.250000
1069.089844	223683.453125
1067.969727	220625.281250
1066.849609	220420.796875
1065.729492	219205.031250
1064.609375	218109.765625
1063.488281	217572.640625
1062.367188	216051.656250
1061.246094	215421.875000
1060.125000	215316.375000
1059.002930	214540.468750
1057.881836	213394.234375
1056.759766	212437.093750
1055.636719	210819.203125
1054.514648	210728.031250
1053.391602	209740.968750
1052.268555	208131.281250
1051.145508	206699.609375
1050.021484	205268.531250
1048.897461	204454.015625
1047.773438	203117.031250
1046.649414	202210.265625
1045.525391	200362.796875
1044.400391	199472.468750
1043.275391	198604.640625
1042.150391	197619.890625
1041.024414	196064.734375
1039.899414	195264.500000
1038.773438	193644.125000
1037.646484	192824.828125
1036.520508	193243.781250
1035.393555	191589.453125
1034.266602	190468.359375
1033.139648	189964.078125
1032.012695	189519.625000
1030.884766	188642.546875
1029.756836	188613.609375
1028.628906	188701.640625
1027.500977	187322.109375
1026.372070	187375.062500
1025.243164	187041.953125
1024.114258	185813.562500
1022.985352	185816.062500
1021.855469	185311.500000
1020.725586	184745.437500
1019.595703	183866.703125
1018.465820	183550.109375
1017.334961	183365.796875
1016.204102	182468.062500
1015.073242	183067.828125
1013.942383	182553.531250
1012.810547	181973.406250
1011.678711	181642.140625
1010.546875	180921.656250
1009.415039	181092.187500
1008.282227	180585.375000
1007.150391	180602.000000
1006.017578	180827.406250
1004.883789	181566.921875
1003.750977	182415.953125
1002.617188	184081.734375
1001.483398	185555.750000
1000.349609	188056.656250
999.214844	188631.343750
998.080078	188446.421875
996.945313	187451.906250
995.810547	185646.109375
