#Wave		#Intensity
2001.438477	3771.756104
2000.508789	3356.541504
1999.579102	3294.280762
1998.649414	3258.821777
1997.719727	3306.370605
1996.789063	3311.073486
1995.858398	3224.784424
1994.927734	3154.583252
1993.997070	3349.245850
1993.066406	3222.880859
1992.134766	3286.424072
1991.204102	3202.897461
1990.272461	3223.650879
1989.340820	3124.134277
1988.408203	3233.069336
1987.476563	3184.346924
1986.543945	3242.479980
1985.612305	3177.752197
1984.679688	3251.882080
1983.746094	3251.241699
1982.813477	3277.289307
1981.879883	3201.931885
1980.947266	3273.330322
1980.013672	3203.337402
1979.079102	3101.371826
1978.145508	3151.417969
1977.211914	3113.477783
1976.277344	3070.222168
1975.342773	3053.629395
1974.408203	3119.629395
1973.473633	3137.659180
1972.538086	3059.812988
1971.603516	3141.747070
1970.667969	3010.690918
1969.732422	3180.429932
1968.795898	2956.285400
1967.860352	3144.590576
1966.923828	3098.752441
1965.988281	3084.844482
1965.051758	3108.165527
1964.114258	3107.552246
1963.177734	3125.543701
1962.241211	3055.838379
1961.303711	3063.205566
1960.366211	3121.037598
1959.428711	3051.374023
1958.490234	3002.979004
1957.552734	2983.803955
1956.614258	3099.995605
1955.675781	2921.593750
1954.737305	2984.690186
1953.798828	3005.321289
1952.860352	2930.471680
1951.920898	3035.952393
1950.981445	2971.729736
1950.041992	2984.395020
1949.102539	3113.651611
1948.163086	2940.825928
1947.222656	2884.618896
1946.282227	2976.740967
1945.341797	2830.522705
1944.401367	2957.033936
1943.460938	2959.096436
1942.519531	2929.402832
1941.578125	2960.572754
1940.637695	2870.050537
1939.695313	2872.127930
1938.753906	2821.321045
1937.812500	2759.959717
1936.870117	2851.923096
1935.927734	2843.431396
1934.985352	2887.784424
1934.042969	2863.439453
1933.099609	2786.283447
1932.157227	2827.980469
1931.213867	2896.060791
1930.270508	2850.617188
1929.327148	2755.051514
1928.382813	2976.133301
1927.439453	2822.546631
1926.495117	2853.636719
1925.550781	2715.955811
1924.606445	2805.053467
1923.661133	2778.140381
1922.716797	2880.366699
1921.771484	2874.527100
1920.826172	2787.028076
1919.880859	2815.447266
1918.935547	2883.353027
1917.989258	2703.760010
1917.043945	2821.671875
1916.097656	2757.953857
1915.151367	2878.438965
1914.204102	2791.059326
1913.257813	2756.315674
1912.310547	2818.878906
1911.363281	2681.610840
1910.416016	2717.878662
1909.468750	2617.476807
1908.521484	2687.899658
1907.573242	2676.859375
1906.625000	2784.012451
1905.676758	2670.546631
1904.728516	2696.271240
1903.780273	2732.485107
1902.831055	2640.091309
1901.881836	2629.072510
1900.932617	2725.613770
1899.983398	2664.749268
1899.034180	2669.465332
1898.083984	2603.392334
1897.134766	2731.316162
1896.184570	2641.670654
1895.234375	2683.069580
1894.283203	2763.747070
1893.333008	2658.432861
1892.381836	2689.329102
1891.430664	2557.890137
1890.479492	2617.587158
1889.528320	2700.813965
1888.576172	2564.217529
1887.625000	2500.923828
1886.672852	2563.199707
1885.720703	2552.230957
1884.767578	2669.375732
1883.815430	2577.357422
1882.862305	2574.232178
1881.910156	2571.108154
1880.956055	2515.737305
1880.002930	2669.338623
1879.049805	2671.419922
1878.095703	2485.519775
1877.141602	2537.232422
1876.187500	2382.750000
1875.233398	2528.396729
1874.279297	2433.978760
1873.324219	2483.052002
1872.370117	2485.166260
1871.415039	2422.099365
1870.458984	2528.492432
1869.503906	2447.198486
1868.548828	2446.712158
1867.592773	2456.646484
1866.636719	2487.413574
1865.680664	2549.417480
1864.723633	2520.271240
1863.767578	2498.945557
1862.810547	2464.615479
1861.853516	2490.145752
1860.896484	2437.620117
1859.939453	2429.332520
1858.981445	2462.655518
1858.024414	2456.965576
1857.066406	2427.883057
1856.108398	2339.036377
1855.149414	2507.467773
1854.191406	2410.846680
1853.232422	2485.690918
1852.273438	2329.384766
1851.314453	2450.949219
1850.355469	2328.457520
1849.396484	2369.519043
1848.436523	2446.891113
1847.476563	2373.764404
1846.516602	2378.479248
1845.556641	2302.801514
1844.595703	2343.826660
1843.635742	2320.030029
1842.674805	2397.318848
1841.713867	2355.382568
1840.752930	2341.959961
1839.791016	2250.838379
1838.830078	2410.947021
1837.868164	2304.312988
1836.906250	2412.575195
1835.944336	2339.627930
1834.981445	2416.788818
1834.019531	2330.934570
1833.056641	2351.162109
1832.093750	2371.381836
1831.130859	2311.442383
1830.167969	2300.641602
1829.204102	2390.639648
1828.240234	2279.052734
1827.276367	2299.265869
1826.312500	2252.314697
1825.348633	2290.601807
1824.383789	2274.653564
1823.418945	2289.687988
1822.454102	2278.907959
1821.489258	2332.640869
1820.524414	2252.200439
1819.558594	2313.654785
1818.593750	2367.348145
1817.627930	2194.129883
1816.662109	2291.647949
1815.695313	2242.222412
1814.729492	2267.542480
1813.762695	2285.123535
1812.795898	2248.607178
1811.829102	2222.406250
1810.862305	2185.916748
1809.894531	2200.925293
1808.926758	2167.028320
1807.959961	2279.814209
1806.991211	2261.350586
1806.023438	2271.187256
1805.055664	2268.162109
1804.086914	2113.443115
1803.118164	2174.715088
1802.149414	2248.812500
1801.180664	2122.454834
1800.210938	2160.566406
1799.241211	2129.312500
1798.272461	2175.111084
1797.302734	2223.458984
1796.332031	2171.674805
1795.362305	2171.240723
1794.391602	2196.466309
1793.420898	2113.932861
1792.450195	2082.730957
1791.479492	2148.989502
1790.507813	2097.281494
1789.537109	2089.171875
1788.565430	2152.826172
1787.593750	2065.274902
1786.621094	2095.604248
1785.649414	2041.396606
1784.676758	2120.374268
1783.704102	2040.579834
1782.731445	1955.697754
1781.758789	2129.338867
1780.786133	2075.178223
1779.812500	2148.952881
1778.838867	2053.885498
1777.865234	1976.756836
1776.891602	2068.403809
1775.916992	2052.652344
1774.943359	2044.574219
1773.968750	1957.287842
1772.994141	2030.982056
1772.018555	1994.816895
1771.043945	2094.010498
1770.068359	1983.805298
1769.092773	2008.934448
1768.117188	1965.145630
1767.141602	2054.058838
1766.166016	2102.118652
1765.189453	1961.414185
1764.212891	2022.223389
1763.236328	2047.313965
1762.259766	1952.588135
1761.282227	2051.590576
1760.305664	1944.161255
1759.328125	1989.627319
1758.350586	1923.005737
1757.372070	1960.817993
1756.394531	2018.983032
1755.416016	1911.667358
1754.437500	1967.273682
1753.458984	1999.957275
1752.480469	1961.396729
1751.500977	1945.742676
1750.522461	1927.551758
1749.542969	1911.910522
1748.563477	1891.191528
1747.583984	1928.933350
1746.603516	1857.401001
1745.623047	1925.618896
1744.642578	2029.367676
1743.662109	1957.857910
1742.681641	2003.164551
1741.701172	1926.611816
1740.719727	1928.762939
1739.738281	1882.703613
1738.756836	1953.356812
1737.775391	1836.294067
1736.792969	1919.606934
1735.810547	1924.292114
1734.828125	1809.840088
1733.845703	2002.081909
1732.863281	1915.531494
1731.880859	1821.416016
1730.897461	1884.369019
1729.914063	1886.522583
1728.930664	1954.500488
1727.946289	1771.859375
1726.962891	1867.670654
1725.978516	1882.476563
1724.994141	1866.919922
1724.009766	1823.548462
1723.025391	1868.698242
1722.040039	1870.850708
1721.055664	1827.504272
1720.070313	1872.625732
1719.083984	1834.349365
1718.098633	1785.983765
1717.113281	1904.329468
1716.126953	1780.215210
1715.140625	1835.398804
1714.154297	1857.746582
1713.166992	1791.759155
1712.180664	1826.722046
1711.193359	1798.606079
1710.206055	1755.368774
1709.218750	1674.325195
1708.230469	1845.420776
1707.243164	1792.117554
1706.254883	1789.236816
1705.266602	1778.798462
1704.278320	1685.235962
1703.290039	1752.897095
1702.300781	1772.688354
1701.311523	1840.304321
1700.322266	1789.593506
1699.333008	1703.672119
1698.342773	1688.233032
1697.353516	1733.171753
1696.363281	1757.972412
1695.373047	1785.277588
1694.382813	1782.403931
1693.391602	1792.098633
1692.401367	1610.804688
1691.410156	1816.500977
1690.418945	1770.919922
1689.426758	1881.066284
1688.435547	1664.747070
1687.443359	1659.390747
1686.451172	1719.294189
1685.458984	1784.192383
1684.466797	1751.216797
1683.474609	1808.557007
1682.481445	1760.542236
1681.488281	1757.679810
1680.495117	1729.749634
1679.501953	1681.779541
1678.507813	1751.604736
1677.513672	1683.606567
1676.519531	1770.937012
1675.525391	1785.605835
1674.531250	1795.260986
1673.536133	1672.234863
1672.541992	1809.553589
1671.546875	1734.118286
1670.551758	1788.808594
1669.555664	1688.394531
1668.560547	1720.564331
1667.564453	1657.709106
1666.568359	1744.867798
1665.572266	1662.038452
1664.575195	1761.654785
1663.579102	1748.807617
1662.582031	1671.022827
1661.584961	1665.690796
1660.587891	1667.851074
1659.589844	1759.876587
1658.592773	1684.647827
1657.594727	1582.001343
1656.596680	1713.904297
1655.597656	1611.293213
1654.599609	1653.361450
1653.600586	1660.507080
1652.602539	1635.244019
1651.602539	1727.126587
1650.603516	1642.058228
1649.604492	1589.410278
1648.604492	1613.996216
1647.604492	1628.611328
1646.604492	1536.162109
1645.604492	1545.808350
1644.603516	1617.668579
1643.602539	1537.718506
1642.601563	1612.038818
1641.600586	1564.455811
1640.599609	1589.006348
1639.597656	1556.364258
1638.596680	1563.506348
1637.594727	1637.745972
1636.591797	1620.021729
1635.589844	1661.925171
1634.586914	1482.763062
1633.584961	1594.206421
1632.582031	1482.162842
1631.578125	1598.525391
1630.575195	1600.683472
1629.571289	1570.585205
1628.567383	1577.709229
1627.563477	1550.107788
1626.559570	1517.558105
1625.555664	1586.667480
1624.550781	1586.346069
1623.545898	1568.677612
1622.541016	1605.524780
1621.536133	1560.610596
1620.530273	1614.780884
1619.524414	1542.645142
1618.518555	1576.991699
1617.512695	1529.644165
1616.506836	1497.163696
1615.500000	1608.197021
1614.494141	1526.240601
1613.487305	1525.931152
1612.480469	1481.114258
1611.472656	1512.951782
1610.465820	1549.719604
1609.458008	1487.626831
1608.450195	1640.504883
1607.441406	1575.948486
1606.433594	1513.887939
1605.424805	1511.111694
1604.416016	1515.742432
1603.407227	1466.072144
1602.398438	1549.674316
1601.389648	1640.643799
1600.379883	1583.578247
1599.370117	1484.611572
1598.360352	1553.348022
1597.350586	1555.497803
1596.339844	1508.354004
1595.329102	1488.334839
1594.318359	1532.377930
1593.307617	1546.845581
1592.296875	1556.382080
1591.285156	1543.755371
1590.273438	1528.671997
1589.261719	1501.289185
1588.250000	1402.558960
1587.238281	1562.182495
1586.225586	1505.293701
1585.212891	1490.233032
1584.200195	1335.036499
1583.187500	1469.962524
1582.173828	1486.867188
1581.161133	1356.337036
1580.147461	1466.609863
1579.133789	1532.627319
1578.119141	1478.291870
1577.105469	1399.427002
1576.090820	1416.324951
1575.076172	1398.857910
1574.061523	1455.007202
1573.046875	1449.805054
1572.031250	1383.288940
1571.015625	1368.294678
1570.000000	1429.307495
1568.984375	1414.309814
1567.967773	1514.498535
1566.952148	1433.335571
1565.935547	1474.687988
1564.918945	1430.303223
1563.901367	1449.601318
1562.884766	1412.583984
1561.867188	1363.343384
1560.849609	1460.952148
1559.832031	1453.314819
1558.814453	1372.295654
1557.795898	1452.723145
1556.778320	1457.317627
1555.759766	1430.129517
1554.740234	1292.964844
1553.721680	1375.786377
1552.702148	1326.642700
1551.682617	1397.210083
1550.663086	1333.428833
1549.643555	1413.732544
1548.624023	1349.973877
1547.603516	1427.800659
1546.583008	1454.351807
1545.562500	1366.226563
1544.541992	1451.319824
1543.520508	1453.462769
1542.499023	1475.110229
1541.477539	1499.186646
1540.456055	1316.090576
1539.434570	1430.347534
1538.412109	1388.640259
1537.389648	1405.407104
1536.367188	1373.462646
1535.344727	1331.792358
1534.322266	1341.257568
1533.298828	1282.574463
1532.275391	1323.677856
1531.251953	1340.436890
1530.228516	1369.350220
1529.204102	1322.867798
1528.179688	1356.635254
1527.155273	1404.973389
1526.130859	1336.639526
1525.106445	1358.234497
1524.081055	1345.811035
1523.055664	1279.959595
1522.030273	1345.261597
1521.004883	1238.164795
1519.979492	1298.593994
1518.953125	1298.328735
1517.926758	1344.163086
1516.900391	1275.966431
1515.874023	1367.867065
1514.846680	1297.268433
1513.819336	1343.065186
1512.791992	1272.500244
1511.764648	1262.546997
1510.737305	1310.745483
1509.708984	1317.744629
1508.680664	1356.224487
1507.652344	1290.571289
1506.624023	1249.153198
1505.595703	1309.406494
1504.566406	1277.680786
1503.537109	1214.516357
1502.507813	1289.252686
1501.478516	1288.989014
1500.448242	1279.053955
1499.417969	1336.809448
1498.387695	1227.776367
1497.357422	1237.190674
1496.327148	1273.176025
1495.295898	1318.808228
1494.264648	1328.197998
1493.233398	1282.052368
1492.202148	1276.962280
1491.169922	1303.248535
1490.138672	1387.434326
1489.106445	1242.404297
1488.074219	1232.502197
1487.041016	1280.478882
1486.008789	1328.435791
1484.975586	1231.745361
1483.942383	1277.282593
1482.909180	1269.792603
1481.875000	1226.170898
1480.841797	1264.455566
1479.807617	1338.844360
1478.773438	1273.567627
1477.738281	1244.422607
1476.704102	1239.354614
1475.668945	1236.694702
1474.633789	1250.874512
1473.598633	1320.364136
1472.563477	1339.329956
1471.527344	1245.297485
1470.491211	1259.463623
1469.455078	1302.460571
1468.418945	1263.752441
1467.381836	1309.132813
1466.345703	1282.447021
1465.308594	1241.365356
1464.271484	1260.315674
1463.233398	1243.256470
1462.196289	1307.791138
1461.158203	1209.158691
1460.120117	1328.842285
1459.082031	1242.236694
1458.042969	1340.285400
1457.004883	1299.258667
1455.965820	1243.868896
1454.926758	1257.990601
1453.886719	1274.502197
1452.847656	1334.120361
1451.807617	1312.294189
1450.767578	1223.439209
1449.727539	1299.786865
1448.686523	1282.767456
1447.646484	1251.398560
1446.605469	1349.223511
1445.564453	1277.193970
1444.523438	1217.150146
1443.481445	1245.589355
1442.439453	1278.797363
1441.397461	1192.502441
1440.355469	1232.875488
1439.313477	1321.007813
1438.270508	1277.746826
1437.227539	1284.647705
1436.184570	1186.503174
1435.141602	1217.288208
1434.098633	1279.083130
1433.054688	1200.086792
1432.010742	1168.830322
1430.966797	1256.830566
1429.922852	1196.962402
1428.877930	1239.626465
1427.833008	1206.003906
1426.788086	1170.012085
1425.743164	1181.683594
1424.697266	1202.877930
1423.652344	1128.805664
1422.606445	1269.049927
1421.560547	1133.102173
1420.513672	1211.408325
1419.467773	1125.497437
1418.420898	1263.247681
1417.374023	1201.146484
1416.327148	1219.923462
1415.279297	1271.978027
1414.232422	1193.273804
1413.184570	1254.818481
1412.136719	1188.030396
1411.087891	1202.039307
1410.040039	1175.665771
1408.991211	1227.664795
1407.942383	1210.793213
1406.893555	1129.840942
1405.844727	1203.175049
1404.794922	1221.908325
1403.745117	1188.446533
1402.695313	1211.918213
1401.645508	1150.018066
1400.594727	1235.125610
1399.543945	1175.616211
1398.493164	1156.416382
1397.442383	1175.131714
1396.391602	1212.789185
1395.339844	1124.914185
1394.288086	1188.611572
1393.236328	1193.101074
1392.184570	1150.253052
1391.131836	1185.510254
1390.079102	1123.754883
1389.026367	1135.349731
1387.973633	1187.141602
1386.920898	1217.633179
1385.867188	1115.736450
1384.813477	1124.959717
1383.759766	1143.630615
1382.706055	1178.830322
1381.651367	1133.711060
1380.597656	1171.259644
1379.542969	1173.378784
1378.487305	1168.415771
1377.432617	1165.814575
1376.376953	1170.292847
1375.321289	1129.948608
1374.265625	1240.564209
1373.209961	1094.112061
1372.153320	1181.114014
1371.097656	1159.656860
1370.041016	1119.356201
1368.984375	1168.602051
1367.926758	1191.916260
1366.869141	1090.401611
1365.812500	1158.459595
1364.753906	1155.866089
1363.696289	1150.919922
1362.638672	1122.444458
1361.580078	1148.091675
1360.521484	1143.150024
1359.461914	1128.803711
1358.403320	1142.677368
1357.343750	1137.739746
1356.284180	1142.204956
1355.224609	1200.712036
1354.165039	1137.034058
1353.104492	1127.403931
1352.044922	1181.181030
1350.984375	1061.199585
1349.922852	1021.075928
1348.862305	1074.841431
1347.800781	1180.203857
1346.739258	1161.192871
1345.677734	1111.700073
1344.616211	1073.952026
1343.553711	1104.206787
1342.491211	1096.946533
1341.428711	1115.466797
1340.366211	1068.377319
1339.302734	1112.662598
1338.240234	1133.509888
1337.176758	1065.372314
1336.113281	1104.948608
1335.048828	1111.741211
1333.985352	1036.630249
1332.920898	1162.750610
1331.856445	1176.544067
1330.791016	1143.560303
1329.726563	1096.561768
1328.661133	1061.270508
1327.595703	1072.736206
1326.530273	1072.513794
1325.463867	1100.325317
1324.398438	1076.740601
1323.332031	1029.813843
1322.265625	1087.967773
1321.198242	1129.757935
1320.131836	1152.860962
1319.064453	1108.290405
1317.997070	1101.062256
1316.929688	1068.182007
1315.861328	1095.942017
1314.793945	1060.745117
1313.725586	1025.562622
1312.656250	1074.287109
1311.587891	1120.661377
1310.518555	1036.571289
1309.450195	1115.538574
1308.380859	1161.875122
1307.310547	1122.059326
1306.241211	1093.897095
1305.170898	1079.708374
1304.100586	1100.422485
1303.030273	1076.934082
1301.958984	1109.267578
1300.888672	1139.262573
1299.817383	1106.482422
1298.746094	1031.882690
1297.673828	1080.463501
1296.602539	1054.685059
1295.530273	1056.788574
1294.458008	1065.857544
1293.385742	1074.922729
1292.312500	1083.984009
1291.240234	1044.307251
1290.166992	1034.809326
1289.092773	1071.709839
1288.019531	1127.148682
1286.945313	1073.583130
1285.872070	1133.635010
1284.796875	1154.259399
1283.722656	1052.057861
1282.648438	1056.472778
1281.573242	1053.936768
1280.498047	1079.192017
1279.422852	1106.752197
1278.346680	1083.372925
1277.270508	1069.261108
1276.195313	1092.177979
1275.118164	1061.875854
1274.041992	1077.845825
1272.964844	1012.871704
1271.888672	1093.581299
1270.811523	1065.615356
1269.733398	1044.594116
1268.656250	1060.550659
1267.578125	1111.151855
1266.500000	1067.037964
1265.421875	1101.452637
1264.342773	1138.161621
1263.264648	1070.987915
1262.185547	1073.072510
1261.106445	1042.855469
1260.026367	1033.411377
1258.947266	1035.502319
1257.867188	1016.840515
1256.787109	1035.070923
1255.707031	1009.502441
1254.625977	1050.769897
1253.544922	1011.385620
1252.463867	1031.905029
1251.382813	1027.084229
1250.301758	990.031738
1249.219727	1038.165649
1248.137695	1028.743530
1247.055664	1049.237671
1245.973633	993.807373
1244.890625	1018.900085
1243.807617	931.305847
1242.724609	1039.166504
1241.641602	1009.068481
1240.557617	999.665649
1239.474609	999.457153
1238.390625	1040.596802
1237.305664	1031.193115
1236.221680	978.166199
1235.136719	1072.085205
1234.051758	1046.614136
1232.966797	1030.332642
1231.881836	972.761353
1230.795898	1057.427734
1229.709961	997.581421
1228.624023	1043.229370
1227.538086	1036.134521
1226.452148	1033.626343
1225.365234	985.291626
1224.278320	964.467773
1223.191406	1062.754272
1222.103516	977.804504
1221.015625	1041.705200
1219.927734	1011.730774
1218.839844	974.903259
1217.751953	997.579834
1216.663086	999.658936
1215.574219	1077.210449
1214.485352	1033.540039
1213.396484	1010.462830
1212.306641	978.252686
1211.217773	1016.895874
1210.127930	920.726624
1209.037109	986.776001
1207.947266	1087.053589
1206.856445	984.080078
1205.765625	986.157043
1204.674805	990.515381
1203.583984	1015.408142
1202.492188	1035.727783
1201.400391	937.434082
1200.308594	1046.696411
1199.216797	1012.278748
1198.124023	966.478271
1197.031250	984.507629
1195.938477	1048.098877
1194.845703	977.261536
1193.751953	992.999634
1192.658203	1020.116272
1191.564453	1001.690186
1190.470703	1026.517456
1189.376953	953.482788
1188.282227	985.135071
1187.187500	1025.872681
1186.092773	986.996582
1184.998047	995.884705
1183.902344	950.211365
1182.806641	995.467468
1181.710938	1063.427246
1180.615234	981.419495
1179.518555	990.299133
1178.421875	981.008179
1177.325195	1046.643433
1176.228516	937.468872
1175.130859	989.469116
1174.033203	977.916931
1172.935547	948.221741
1171.837891	1054.618774
1170.740234	972.766846
1169.641602	1056.443604
1168.542969	1031.289673
1167.444336	992.549744
1166.345703	999.138428
1165.246094	1003.459106
1164.146484	996.454529
1163.046875	1027.944214
1161.947266	968.871765
1160.846680	1075.040894
1159.746094	993.355652
1158.645508	977.311096
