#Wave		#Intensity
1796.204102	-885.108459
1795.239258	-228.656570
1794.274414	-453.774750
1793.309570	490.480652
1792.344727	194.154312
1791.378906	732.412292
1790.413086	889.744446
1789.447266	1287.836670
1788.481445	204.922470
1787.515625	389.095428
1786.548828	724.673157
1785.582031	131.791718
1784.615234	1135.009766
1783.648438	28.254513
1782.680664	438.080688
1781.713867	254.668243
1780.746094	-57.283531
1779.778320	1400.497437
1778.809570	715.237000
1777.841797	340.685730
1776.873047	267.416809
1775.904297	659.333923
1774.935547	-359.908142
1773.966797	6.232022
1772.997070	-30.602434
1772.028320	456.198883
1771.058594	545.377686
1770.087891	108.819702
1769.118164	793.944885
1768.148438	-160.800934
1767.177734	-154.849319
1766.207031	-279.402435
1765.236328	-118.863617
1764.264648	278.257660
1763.293945	272.752228
1762.322266	-77.981804
1761.350586	286.808319
1760.378906	-73.152130
1759.406250	-273.343048
1758.434570	-35.402061
1757.461914	838.242432
1756.489258	-346.152679
1755.515625	-344.259796
1754.542969	120.960899
1753.569336	338.641144
1752.595703	661.593018
1751.622070	-311.613007
1750.648438	221.991074
1749.674805	-570.784058
1748.700195	-212.420013
1747.725586	51.747375
1746.750977	-276.371887
1745.776367	-105.829346
1744.800781	-422.364899
1743.825195	35.259487
1742.849609	-407.860565
1741.874023	30.073400
1740.898438	608.617493
1739.921875	679.954895
1738.946289	664.793762
1737.969727	410.585632
1736.992188	860.692749
1736.015625	64.523430
1735.038086	617.274963
1734.061523	826.111877
1733.083008	1593.396118
1732.105469	1451.465820
1731.127930	1261.625977
1730.149414	1670.590698
1729.170898	2850.919678
1728.192383	2588.399170
1727.213867	2517.182129
1726.234375	2698.268555
1725.255859	2533.731689
1724.276367	2433.286621
1723.296875	2887.391846
1722.316406	2452.294678
1721.336914	2922.216309
1720.356445	2805.581299
1719.375977	2397.311279
1718.395508	2880.871826
1717.415039	2095.283447
1716.433594	2670.912109
1715.452148	2508.258301
1714.470703	2493.244873
1713.489258	1918.084229
1712.507813	1825.458740
1711.525391	1956.437744
1710.542969	1322.266602
1709.560547	1411.154663
1708.578125	1325.663452
1707.595703	1205.254639
1706.612305	938.483826
1705.628906	915.473328
1704.645508	434.774109
1703.662109	1066.110229
1702.677734	675.295715
1701.693359	254.907516
1700.708984	366.595276
1699.724609	367.642548
1698.740234	599.506104
1697.754883	740.901733
1696.770508	304.312927
1695.785156	272.920197
1694.798828	474.696594
1693.813477	583.919250
1692.827148	663.568665
1691.841797	-379.338257
1690.855469	-547.516663
1689.868164	77.732086
1688.881836	-83.353081
1687.894531	36.603054
1686.907227	414.921143
1685.919922	-451.488617
1684.932617	272.082123
1683.944336	-475.660858
1682.957031	-372.263611
1681.968750	-212.301010
1680.980469	-590.072083
1679.991211	-170.554260
1679.002930	-363.865967
1678.013672	360.648346
1677.024414	142.608734
1676.035156	394.421326
1675.044922	421.195007
1674.055664	14.842896
1673.065430	-70.335434
1672.075195	1035.766968
1671.083984	1114.952515
1670.093750	1312.033691
1669.102539	1568.669434
1668.111328	2465.500000
1667.120117	2635.784912
1666.128906	3290.470947
1665.136719	4429.023438
1664.145508	5429.274902
1663.153320	6584.415527
1662.160156	7831.662598
1661.167969	10047.184570
1660.174805	12815.966797
1659.182617	15471.375977
1658.188477	19937.966797
1657.195313	24583.931641
1656.202148	29819.892578
1655.208008	36810.242188
1654.213867	44246.707031
1653.219727	53461.464844
1652.225586	61471.296875
1651.230469	70284.429688
1650.236328	75538.640625
1649.241211	79545.203125
1648.245117	81857.148438
1647.250000	79424.796875
1646.253906	75586.484375
1645.258789	70206.406250
1644.262695	63382.378906
1643.265625	55560.203125
1642.269531	47176.167969
1641.272461	40675.562500
1640.275391	34681.531250
1639.278320	29633.330078
1638.281250	24372.025391
1637.283203	20095.552734
1636.286133	17492.933594
1635.288086	13286.491211
1634.289063	11523.310547
1633.291016	8451.913086
1632.292969	7581.008789
1631.293945	4860.451660
1630.294922	4142.596191
1629.294922	2532.833496
1628.295898	1440.247314
1627.295898	906.104858
1626.295898	78.885544
1625.295898	258.516815
1624.295898	105.262062
1623.294922	-649.809875
1622.294922	-405.446991
1621.293945	40.872288
1620.291992	420.508911
1619.291016	1194.487793
1618.289063	1397.182495
1617.288086	1959.512329
1616.286133	2542.494873
1615.283203	3143.725830
1614.281250	4149.167969
1613.278320	5202.653809
1612.275391	5914.858398
1611.272461	7179.745117
1610.269531	9428.903320
1609.265625	11892.138672
1608.261719	13927.304688
1607.257813	15239.599609
1606.253906	16972.750000
1605.250000	18008.437500
1604.245117	18832.566406
1603.240234	20447.005859
1602.235352	20148.169922
1601.230469	23238.531250
1600.224609	25336.826172
1599.219727	28586.525391
1598.213867	31131.871094
1597.207031	31869.498047
1596.201172	30895.539063
1595.194336	28526.978516
1594.188477	24087.900391
1593.181641	19923.224609
1592.173828	15768.313477
1591.166992	13589.294922
1590.159180	10588.966797
1589.151367	8112.506836
1588.143555	8086.584961
1587.135742	6365.291992
1586.126953	6223.681641
1585.118164	5822.000488
1584.109375	6582.220215
1583.100586	7664.639648
1582.091797	8819.916016
1581.082031	11182.380859
1580.072266	15841.806641
1579.062500	21006.716797
1578.052734	26188.757813
1577.041992	32008.662109
1576.032227	37059.914063
1575.021484	37262.511719
1574.009766	37629.523438
1572.999023	35248.507813
1571.987305	34256.679688
1570.975586	31638.285156
1569.963867	30268.851563
1568.952148	28592.625000
1567.940430	27903.789063
1566.927734	26516.689453
1565.915039	24727.289063
1564.902344	24018.312500
1563.888672	23226.173828
1562.875977	21992.960938
1561.862305	22340.228516
1560.848633	22766.589844
1559.834961	24062.830078
1558.820313	24902.232422
1557.805664	25940.914063
1556.791016	28430.449219
1555.776367	30159.201172
1554.761719	30850.460938
1553.746094	32177.337891
1552.730469	31516.019531
1551.714844	32015.671875
1550.699219	31224.521484
1549.683594	30442.248047
1548.666992	29205.472656
1547.650391	26508.125000
1546.633789	25228.742188
1545.617188	23902.277344
1544.599609	23772.019531
1543.582031	23371.582031
1542.564453	21122.888672
1541.546875	20322.433594
1540.528320	20049.392578
1539.510742	19959.273438
1538.492188	21078.208984
1537.473633	21115.437500
1536.454102	23116.347656
1535.435547	25115.910156
1534.416016	28227.472656
1533.396484	30846.082031
1532.376953	33387.164063
1531.356445	39356.074219
1530.335938	43398.535156
1529.316406	47438.867188
1528.294922	52132.613281
1527.274414	56531.308594
1526.252930	61402.796875
1525.232422	69119.515625
1524.210938	76990.585938
1523.188477	85232.835938
1522.166992	97216.117188
1521.144531	112701.359375
1520.122070	130305.609375
1519.099609	153650.718750
1518.077148	180254.781250
1517.053711	213527.828125
1516.030273	252156.578125
1515.006836	290332.843750
1513.983398	333288.875000
1512.958984	375226.406250
1511.935547	409664.593750
1510.911133	438340.968750
1509.885742	450170.062500
1508.861328	456084.656250
1507.835938	449607.093750
1506.811523	434789.343750
1505.786133	413020.593750
1504.759766	386206.156250
1503.734375	361749.843750
1502.708008	337504.781250
1501.681641	314361.312500
1500.655273	290227.875000
1499.627930	264493.906250
1498.601563	237490.390625
1497.574219	212529.109375
1496.546875	187437.406250
1495.518555	164919.265625
1494.491211	145590.984375
1493.462891	128275.664063
1492.434570	112998.695313
1491.406250	101971.492188
1490.376953	92528.781250
1489.348633	82136.101563
1488.319336	74057.593750
1487.290039	65294.910156
1486.259766	56871.312500
1485.230469	50493.683594
1484.200195	44715.000000
1483.169922	37990.664063
1482.139648	33759.492188
1481.108398	30150.083984
1480.077148	27686.146484
1479.045898	24978.490234
1478.014648	23864.410156
1476.983398	22119.890625
1475.951172	22742.347656
1474.918945	21969.052734
1473.886719	21848.724609
1472.854492	22429.121094
1471.821289	22193.203125
1470.789063	21705.587891
1469.755859	22605.136719
1468.721680	21977.873047
1467.688477	21472.525391
1466.654297	22189.576172
1465.620117	19974.599609
1464.585938	19321.619141
1463.551758	17969.535156
1462.516602	17624.890625
1461.481445	16569.205078
1460.446289	16104.184570
1459.411133	16003.366211
1458.375977	15754.346680
1457.339844	17417.234375
1456.303711	16934.058594
1455.267578	17547.429688
1454.230469	18190.074219
1453.194336	17925.193359
1452.157227	17857.923828
1451.120117	18588.244141
1450.082031	17864.328125
1449.044922	18228.136719
1448.006836	17630.212891
1446.968750	17136.044922
1445.930664	16460.177734
1444.891602	15319.795898
1443.852539	14333.562500
1442.813477	13081.929688
1441.774414	12281.412109
1440.735352	11641.835938
1439.695313	11337.942383
1438.655273	9537.678711
1437.615234	10112.887695
1436.575195	10144.457031
1435.534180	10503.775391
1434.493164	9535.017578
1433.452148	10221.584961
1432.411133	10367.148438
1431.370117	8303.236328
1430.328125	9007.841797
1429.286133	8105.843750
1428.244141	7535.850586
1427.201172	6089.046875
1426.159180	5057.744141
1425.116211	4573.160156
1424.073242	2990.041748
1423.029297	1903.424561
1421.986328	1775.654175
1420.942383	1573.273315
1419.898438	110.835869
1418.854492	-161.972794
1417.809570	229.639633
1416.764648	-552.589478
1415.719727	242.041183
1414.674805	141.811127
1413.629883	-342.999878
1412.583984	154.875946
1411.538086	215.592453
1410.492188	1255.758057
1409.445313	2210.972412
1408.399414	2997.738525
1407.352539	3387.992188
1406.305664	4378.335938
1405.258789	6622.239258
1404.210938	8901.775391
1403.163086	10800.827148
1402.115234	12954.052734
1401.067383	15520.420898
1400.019531	17024.605469
1398.970703	18177.421875
1397.921875	20239.605469
1396.873047	22037.929688
1395.823242	22407.457031
1394.774414	24143.755859
1393.724609	24719.861328
1392.674805	26073.949219
1391.624023	27271.400391
1390.574219	28072.595703
1389.523438	29724.619141
1388.472656	30684.226563
1387.420898	34711.535156
1386.370117	37934.160156
1385.318359	42254.296875
1384.266602	45985.457031
1383.214844	51549.332031
1382.162109	58071.617188
1381.110352	61562.500000
1380.057617	65066.054688
1379.004883	69596.625000
1377.951172	72063.453125
1376.897461	74864.617188
1375.844727	78004.500000
1374.790039	80571.148438
1373.736328	84085.851563
1372.681641	91986.890625
1371.627930	100209.789063
1370.572266	116962.859375
1369.517578	136636.968750
1368.462891	165072.875000
1367.407227	199811.312500
1366.351563	243392.968750
1365.294922	290032.312500
1364.239258	339642.281250
1363.182617	381871.062500
1362.125977	413379.500000
1361.069336	425499.531250
1360.012695	416312.531250
1358.955078	389223.781250
1357.897461	351237.750000
1356.839844	312469.656250
1355.781250	278914.312500
1354.723633	256224.546875
1353.665039	239215.656250
1352.606445	227211.140625
1351.546875	220102.015625
1350.488281	212064.015625
1349.428711	202679.593750
1348.369141	190934.421875
1347.308594	175176.265625
1346.249023	158465.593750
1345.188477	139918.000000
1344.127930	121107.539063
1343.067383	104285.414063
1342.005859	91848.734375
1340.945313	79259.179688
1339.883789	69329.507813
1338.821289	61293.429688
1337.759766	55857.554688
1336.697266	51398.226563
1335.634766	48716.210938
1334.572266	45591.382813
1333.508789	44087.949219
1332.446289	44511.453125
1331.382813	45071.843750
1330.319336	45818.101563
1329.254883	47304.886719
1328.191406	50577.484375
1327.126953	53082.535156
1326.062500	58539.386719
1324.997070	64836.878906
1323.932617	72137.960938
1322.867188	82809.882813
1321.801758	93945.578125
1320.735352	107448.976563
1319.669922	121835.062500
1318.603516	138011.843750
1317.537109	155480.718750
1316.470703	175013.531250
1315.403320	197635.765625
1314.335938	224661.312500
1313.268555	252142.515625
1312.201172	276457.187500
1311.132813	295390.000000
1310.065430	305657.406250
1308.997070	305083.843750
1307.927734	294130.906250
1306.859375	276982.406250
1305.790039	254709.375000
1304.720703	229590.218750
1303.651367	207183.968750
1302.582031	185075.171875
1301.511719	166924.140625
1300.441406	149008.046875
1299.371094	135862.531250
1298.299805	124056.679688
1297.229492	115728.460938
1296.158203	110334.078125
1295.086914	105138.617188
1294.014648	101951.914063
1292.942383	102112.945313
1291.871094	100983.921875
1290.797852	99183.507813
1289.725586	96157.210938
1288.652344	92590.593750
1287.580078	85954.812500
1286.505859	79553.148438
1285.432617	71182.000000
1284.358398	63286.800781
1283.285156	55577.359375
1282.209961	50186.046875
1281.135742	45929.410156
1280.060547	41799.023438
1278.986328	40009.007813
1277.911133	39814.601563
1276.834961	42101.445313
1275.759766	42694.515625
1274.683594	44078.117188
1273.607422	44629.855469
1272.530273	46705.093750
1271.454102	47617.843750
1270.376953	47438.339844
1269.299805	47702.183594
1268.222656	46913.871094
1267.144531	46143.914063
1266.066406	44664.660156
1264.988281	41783.757813
1263.910156	38176.414063
1262.831055	34436.421875
1261.752930	30063.013672
1260.673828	26754.964844
1259.593750	22541.515625
1258.514648	19226.787109
1257.434570	17253.027344
1256.354492	14454.591797
1255.274414	11440.553711
1254.193359	10349.492188
1253.112305	8798.025391
1252.031250	6770.355469
1250.950195	6016.917480
1249.869141	5816.287109
1248.787109	5574.306641
1247.705078	5495.816406
1246.622070	5076.924805
1245.540039	4685.832031
1244.457031	3720.114990
1243.374023	4166.615234
1242.291016	4463.627930
1241.207031	4243.652344
1240.124023	6041.215332
1239.040039	5173.645996
1237.955078	3856.630371
1236.871094	3814.757080
1235.786133	3747.996582
1234.701172	3346.548584
1233.616211	4159.441406
1232.530273	3210.646240
1231.445313	3056.199951
1230.359375	2588.201660
1229.272461	1829.806641
1228.186523	1709.377686
1227.099609	1720.219116
1226.012695	618.260559
1224.925781	46.483376
1223.837891	286.235352
1222.750000	258.709808
1221.662109	-445.596985
1220.574219	384.264160
1219.486328	-229.054764
1218.397461	-79.641212
1217.308594	-551.477966
1216.218750	319.785980
1215.129883	1317.168579
1214.040039	1147.314575
1212.950195	1780.377808
1211.860352	3903.320801
1210.769531	5138.012695
1209.678711	7395.948242
1208.587891	10178.870117
1207.497070	13673.583008
1206.406250	16757.078125
1205.314453	22027.839844
1204.222656	28376.009766
1203.129883	33117.367188
1202.038086	39701.781250
1200.945313	43098.429688
1199.852539	46070.949219
1198.759766	47972.707031
1197.666016	49152.968750
1196.572266	50026.554688
1195.478516	52364.750000
1194.384766	55238.027344
1193.290039	58989.640625
1192.195313	63707.718750
1191.100586	70128.484375
1190.005859	78689.617188
1188.910156	84277.132813
1187.814453	91193.085938
1186.718750	98161.851563
1185.623047	104538.242188
1184.526367	110222.789063
1183.429688	117438.968750
1182.333008	123699.843750
1181.236328	126802.257813
1180.138672	128345.921875
1179.041016	125700.218750
1177.943359	119949.898438
1176.845703	112301.210938
1175.747070	99162.195313
1174.648438	88127.304688
1173.549805	74348.007813
1172.450195	61437.578125
1171.351563	50693.093750
1170.251953	42149.519531
1169.151367	34999.367188
1168.051758	29490.501953
1166.951172	25542.773438
1165.850586	22080.388672
1164.750000	18802.162109
1163.649414	16060.767578
1162.547852	13405.996094
1161.446289	11197.124023
1160.343750	8952.600586
1159.242188	7282.248047
1158.139648	4778.635254
1157.037109	3580.866211
1155.934570	2597.516846
1154.831055	2948.178955
1153.727539	3191.990234
1152.624023	2295.648682
1151.520508	3341.297363
1150.416016	4444.594238
1149.312500	5084.408203
1148.207031	7472.783203
1147.102539	9309.409180
1145.997070	11552.488281
1144.892578	14169.952148
1143.786133	17569.523438
1142.680664	20755.083984
1141.574219	24377.593750
1140.467773	27248.304688
1139.361328	29594.951172
1138.254883	29181.851563
1137.147461	31563.884766
1136.040039	30087.847656
1134.932617	30111.158203
1133.824219	32824.046875
1132.716797	34802.253906
1131.608398	39694.789063
1130.499023	45395.179688
1129.390625	51689.253906
1128.281250	59910.335938
1127.171875	67419.765625
1126.062500	71157.359375
1124.952148	72433.703125
1123.841797	70759.156250
1122.731445	65590.812500
1121.621094	57859.210938
1120.509766	50132.546875
1119.398438	42919.285156
1118.287109	38569.101563
1117.175781	32815.507813
1116.063477	28781.107422
1114.951172	25271.287109
1113.838867	22001.392578
1112.725586	18863.990234
1111.613281	16160.670898
1110.500000	13227.127930
1109.386719	11655.469727
1108.272461	10036.450195
1107.158203	8794.557617
1106.043945	7663.604004
1104.929688	6346.329102
1103.814453	5682.831055
1102.700195	5513.751465
1101.584961	6296.708496
1100.468750	6095.833496
1099.353516	6321.770508
1098.237305	7849.070313
1097.121094	8836.468750
1096.003906	11291.471680
1094.886719	13054.710938
1093.770508	17122.185547
1092.652344	20843.152344
1091.535156	24163.826172
1090.416992	28427.935547
1089.298828	32730.464844
1088.180664	36047.234375
1087.061523	37368.492188
1085.943359	36470.503906
1084.824219	34049.242188
1083.704102	29649.738281
1082.584961	25581.287109
1081.464844	21494.935547
1080.344727	17334.878906
1079.223633	15734.710938
1078.103516	12557.577148
1076.982422	10450.372070
1075.861328	8737.033203
1074.739258	6387.238281
1073.618164	5205.658691
1072.496094	4135.458008
1071.373047	2619.608398
1070.250977	1753.834961
1069.127930	1172.042603
1068.004883	-358.884644
1066.881836	-249.334488
1065.757813	-508.117096
1064.633789	349.269836
1063.509766	-703.795898
1062.385742	136.376129
1061.260742	468.551025
1060.135742	1229.210083
1059.010742	461.700012
1057.885742	-288.640259
1056.759766	88.716957
1055.633789	117.732864
1054.507813	-141.706451
1053.380859	391.611664
1052.254883	576.474548
1051.127930	1434.123657
1050.000000	2349.981445
1048.873047	2815.717285
1047.745117	3534.019775
1046.617188	4140.289063
1045.488281	4621.480957
1044.360352	4589.018066
1043.231445	5344.954590
1042.102539	5128.705078
1040.972656	4950.845703
1039.842773	4465.099609
1038.712891	3532.792725
1037.583008	3826.471924
1036.453125	3327.535645
1035.322266	3084.883301
1034.191406	2609.378906
1033.059570	2528.622559
1031.928711	2087.205566
1030.796875	1809.232666
1029.665039	1740.623169
1028.532227	889.495972
1027.400391	2008.809448
1026.267578	2677.250488
1025.133789	1945.740356
1024.000977	3167.750244
1022.867188	3161.449951
1021.733398	4637.517578
1020.599609	6121.640137
1019.464844	6397.856445
1018.330078	8128.812500
1017.195313	8928.581055
1016.060547	8846.015625
1014.924805	9447.626953
1013.789063	11061.665039
1012.653320	12262.612305
1011.516602	14251.740234
1010.380859	16064.262695
1009.244141	17862.560547
1008.106445	20119.628906
1006.969727	20982.712891
1005.832031	20577.697266
1004.694336	20892.427734
1003.555664	18907.173828
1002.417969	18700.626953
1001.279297	16672.115234
1000.139648	15090.119141
999.000977	13632.858398
997.861328	11299.482422
996.721680	10810.600586
995.582031	8803.294922
994.441406	7270.268066
993.300781	6630.297363
992.160156	5612.388672
991.019531	3965.837646
989.877930	3827.037354
988.736328	3585.130127
987.594727	3096.251465
986.452148	2742.141113
985.310547	1596.249268
984.166992	1128.011597
983.024414	1310.684082
981.881836	662.711975
980.738281	763.485291
979.593750	358.444061
978.450195	527.496033
977.305664	-68.006004
976.161133	195.432190
975.016602	266.645386
973.872070	128.391464
972.726563	396.090179
971.581055	493.445435
970.434570	94.655754
969.289063	664.333374
968.142578	718.340454
966.996094	795.574951
965.848633	1045.832153
964.701172	1006.696594
963.553711	715.264954
962.406250	297.572174
961.257813	1213.416626
960.110352	504.145203
958.960938	497.068085
957.812500	-115.195160
956.663086	134.760834
955.513672	-150.943558
954.364258	-90.405853
953.214844	404.949463
952.064453	111.662193
950.914063	-495.665222
949.762695	-975.385437
948.612305	-429.713867
947.460938	-790.817322
946.309570	-829.783752
945.157227	-1033.258667
944.004883	-625.143982
942.852539	20.340832
941.700195	-228.913269
940.547852	441.970032
939.394531	453.911438
938.241211	973.179749
937.086914	1351.944214
935.932617	1693.963623
934.778320	1984.212769
