#Wave		#Intensity
1678.89356	9.34579E-7
1677.90527	561.23775
1676.91699	422.98518
1675.92871	787.50812
1674.93945	774.39946
1673.95019	786.67307
1672.96094	209.89705
1671.97168	369.95365
1670.98242	379.92606
1669.99219	393.71996
1669.00195	122.19762
1668.01172	380.48334
1667.02148	689.44222
1666.03027	345.37257
1665.03906	419.51039
1664.04883	13.70795
1663.05664	341.56907
1662.06543	391.8951
1661.07324	492.05425
1660.08203	248.25908
1659.08984	415.13872
1658.09766	256.05767
1657.10449	411.31239
1656.11231	868.41103
1655.11914	268.04121
1654.12598	606.58253
1653.13184	453.61818
1652.13867	535.84381
1651.14453	674.78963
1650.15039	276.20601
1649.15625	191.91434
1648.16211	118.43763
1647.16699	104.01524
1646.17285	377.71737
1645.17773	265.01965
1644.18164	282.41542
1643.18652	544.70124
1642.19043	202.51762
1641.19531	571.64599
1640.19922	243.98948
1639.20215	210.28614
1638.20606	-48.645
1637.20898	539.06558
1636.21191	467.25867
1635.21484	386.50072
1634.21777	518.44446
1633.21973	190.24942
1632.22266	860.65576
1631.22461	300.91655
1630.22656	770.73393
1629.22754	215.6208
1628.22949	421.09603
1627.23047	238.65963
1626.23144	114.31482
1625.23144	384.81912
1624.23242	647.92061
1623.23242	917.70248
1622.23242	722.5559
1621.23242	770.59831
1620.23242	901.60613
1619.23242	377.2715
1618.23144	719.35287
1617.23047	654.09109
1616.22949	1077.09779
1615.22754	668.12829
1614.22656	472.17678
1613.22461	1058.36412
1612.22266	701.43568
1611.2207	950.74753
1610.21777	1027.80196
1609.21484	1291.92383
1608.21289	1069.4942
1607.20898	1125.22689
1606.20606	1341.8363
1605.20313	1192.84627
1604.19922	1073.61474
1603.19531	1307.66702
1602.19141	1357.99951
1601.18652	1584.87086
1600.18262	1475.579
1599.17773	1802.20128
1598.17285	1511.68133
1597.16699	1524.5234
1596.16211	1545.95347
1595.15625	1845.92801
1594.15039	1392.73584
1593.14453	1660.37913
1592.13867	1759.36788
1591.13184	1817.96327
1590.125	1548.98812
1589.11816	1938.64194
1588.11133	1787.1959
1587.10449	1914.67016
1586.09668	1901.49296
1585.08887	2047.88424
1584.08106	2219.36679
1583.07324	2059.49018
1582.06445	2062.88771
1581.05664	2334.52669
1580.04785	2190.58083
1579.03906	1817.61628
1578.0293	1986.00851
1577.02051	2410.34207
1576.01074	2336.36317
1575.00098	2485.17852
1573.99023	2473.31392
1572.98047	2888.13814
1571.96973	2244.03421
1570.95898	2380.89077
1569.94824	2440.45506
1568.9375	2768.46999
1567.92578	2769.29359
1566.91504	3123.54191
1565.90332	3153.46944
1564.89063	3057.51187
1563.87891	3180.97255
1562.86621	3387.27311
1561.85352	3739.73587
1560.84082	3720.811
1559.82813	3703.35262
1558.81445	4051.20893
1557.80176	4110.98076
1556.78809	4506.95659
1555.77441	4196.79049
1554.75977	4364.19666
1553.74609	4378.74069
1552.73144	4182.81633
1551.7168	4157.19973
1550.70117	3796.94163
1549.68652	3857.72762
1548.6709	3381.82626
1547.65527	3486.37759
1546.63965	3292.19955
1545.62402	3179.70156
1544.60742	3090.2592
1543.59082	2896.51084
1542.57422	2750.05841
1541.55762	2797.33426
1540.54004	2392.12544
1539.52344	2216.31389
1538.50586	1922.67615
1537.48828	2012.0088
1536.46973	2120.16574
1535.45215	2076.98817
1534.43359	2247.38263
1533.41504	1993.28691
1532.39648	2197.58378
1531.37695	2137.4697
1530.3584	2493.42746
1529.33887	2149.47266
1528.31934	2437.48741
1527.29883	2678.96649
1526.2793	2493.79454
1525.25879	2520.51183
1524.23828	2770.33678
1523.21777	2946.7611
1522.19629	2575.7588
1521.17578	2538.16516
1520.1543	2613.30608
1519.13281	2852.56024
1518.11035	3016.7255
1517.08887	2675.43699
1516.06641	2626.32484
1515.04394	2678.43878
1514.02148	2725.22525
1512.99805	2616.12588
1511.97559	3283.72956
1510.95215	2876.99566
1509.92871	2769.81235
1508.9043	2495.14895
1507.88086	2562.55348
1506.85644	2448.85167
1505.83203	2183.65746
1504.80762	2111.37613
1503.78223	1989.88281
1502.75781	1913.12664
1501.73242	2028.68502
1500.70703	1614.33932
1499.68066	1578.88133
1498.65527	1258.75621
1497.62891	1437.5272
1496.60254	977.55631
1495.57617	872.58351
1494.54883	674.6008
1493.52246	669.10348
1492.49512	296.94291
1491.46777	457.9531
1490.43945	-5.29614
1489.41211	169.92326
1488.38379	245.83425
1487.35547	808.5917
1486.32715	399.9266
1485.29785	535.60923
1484.26953	471.18444
1483.24023	59.42905
1482.21094	259.03367
1481.18066	227.98794
1480.15137	264.64119
1479.12109	236.19137
1478.09082	38.75936
1477.06055	229.77711
1476.0293	449.61724
1474.99805	409.30145
1473.96777	388.81183
1472.93555	368.38563
1471.9043	310.49412
1470.87207	376.7038
1469.84082	-17.11788
1468.80859	432.41205
1467.77539	601.42877
1466.74316	430.11617
1465.70996	835.25099
1464.67676	689.32083
1463.64356	907.4268
1462.61035	1320.48773
1461.57617	1164.88656
1460.54199	1414.96815
1459.50781	1905.79239
1458.47363	1818.82119
1457.43848	2395.04618
1456.40332	2177.39231
1455.36816	2518.37854
1454.33301	2933.07626
1453.29785	3040.31268
1452.26172	2816.52344
1451.22559	2855.33386
1450.18945	2692.62084
1449.15332	2870.51183
1448.11621	2683.08868
1447.0791	2939.84028
1446.04199	2446.33981
1445.00488	2523.93692
1443.96777	2600.79823
1442.92969	2323.57641
1441.8916	2092.4133
1440.85352	2322.40234
1439.81543	2315.8685
1438.77637	2164.86821
1437.73731	2340.75095
1436.69824	2197.89738
1435.65918	1823.3926
1434.61914	1954.34014
1433.5791	1972.24591
1432.54004	2032.88497
1431.49902	1888.03081
1430.45898	1947.45053
1429.41797	1648.03957
1428.37695	1765.75889
1427.33594	1860.9229
1426.29492	2082.82345
1425.25293	1785.28877
1424.21094	1553.40802
1423.16894	1760.98806
1422.12695	1797.7644
1421.08496	1959.40129
1420.04199	1852.17454
1418.99902	1929.62398
1417.95606	1883.77994
1416.91211	1857.9578
1415.86914	1728.079
1414.82519	2034.26895
1413.78125	1886.85876
1412.73731	1892.72598
1411.69238	2086.13938
1410.64746	2183.59028
1409.60254	2139.71944
1408.55762	2260.09601
1407.51172	2273.53333
1406.4668	2284.17038
1405.4209	2390.88767
1404.375	2334.64807
1403.32813	2296.18794
1402.28223	2459.54348
1401.23535	2568.11843
1400.18848	2721.47215
1399.14063	2594.29615
1398.09375	2647.91892
1397.0459	2575.77541
1395.99805	2971.74595
1394.95019	2737.80575
1393.90137	2945.70878
1392.85352	2690.45415
1391.80469	3007.33097
1390.75586	2922.9275
1389.70606	3279.92169
1388.65723	3202.48522
1387.60742	3039.50205
1386.55762	3172.21397
1385.50684	3054.46207
1384.45703	3165.74201
1383.40625	3241.97284
1382.35547	3358.42418
1381.30469	3399.93228
1380.25293	3315.6898
1379.20117	3149.53983
1378.14941	3298.94075
1377.09766	3315.48554
1376.0459	3168.73522
1374.99316	2999.93958
1373.94043	2922.23861
1372.88769	2962.98481
1371.83496	3222.86562
1370.78125	3280.68998
1369.72754	3171.87464
1368.67383	3177.8773
1367.62012	2775.34901
1366.56641	3342.86781
1365.51172	3245.38898
1364.45703	3338.07535
1363.40234	3273.13814
1362.34668	3071.46758
1361.29199	3174.91366
1360.23633	3259.33703
1359.17969	3060.68779
1358.12402	3258.17903
1357.06738	3455.11482
1356.01172	3333.30644
1354.95508	2821.28067
1353.89746	3134.63639
1352.84082	2790.83711
1351.7832	2623.6445
1350.72559	2984.47229
1349.66797	2818.39223
1348.60938	2566.99237
1347.55078	2863.96886
1346.49219	2876.22134
1345.43359	2481.28651
1344.375	2209.43998
1343.31543	2577.81414
1342.25586	2681.87299
1341.19629	2759.38048
1340.13672	2297.92513
1339.07617	2290.94827
1338.01563	2150.37876
1336.95508	1976.35186
1335.89453	2084.75577
1334.83301	2046.06528
1333.77148	1705.06444
1332.70996	1805.08296
1331.64844	2349.77201
1330.58594	1702.07734
1329.52441	1801.87372
1328.46191	1782.76851
1327.39941	1821.26734
1326.33594	1948.47656
1325.27246	1673.54145
1324.20898	1348.59384
1323.14551	1305.7891
1322.08203	1488.49746
1321.01758	1585.65275
1319.95313	1220.301
1318.88867	1128.09041
1317.82422	1369.59879
1316.75879	1609.91695
1315.69336	1259.59605
1314.62793	1324.98503
1313.5625	1584.82741
1312.49609	1522.09979
1311.43066	1543.71541
1310.36426	1444.62927
1309.29688	1524.66569
1308.23047	1122.6766
1307.16309	1604.22468
1306.0957	1547.57612
1305.02832	1014.55831
1303.95996	906.45435
1302.89258	799.71461
1301.82422	941.49118
1300.75586	909.92115
1299.68652	673.38461
1298.61816	805.70308
1297.54883	551.55216
1296.47949	447.25812
1295.40918	288.29209
1294.33984	559.99998
1293.26953	226.73037
1292.19922	348.43091
1291.12793	446.25027
1290.05762	467.0239
1288.98633	429.63303
1287.91504	124.20052
1286.84375	-100.76395
1285.77148	269.31686
1284.69922	22.28796
1283.62695	201.55975
1282.55469	174.58464
1281.48144	429.2049
1280.40918	361.73707
1279.33594	139.05216
1278.26172	349.15735
1277.18848	598.47485
1276.11426	796.52125
1275.04004	627.40403
1273.96582	839.03138
1272.8916	758.55227
1271.81641	878.11309
1270.74121	1099.23427
1269.66602	1166.91534
1268.58984	1166.14112
1267.51465	980.43325
1266.43848	1166.26314
1265.36231	1240.29233
1264.28516	1431.7925
1263.20898	1070.58932
1262.13184	1213.31073
1261.05469	1306.9753
1259.97656	1321.87071
1258.89941	1582.22255
1257.82129	1727.05817
1256.74316	1439.53609
1255.66504	1583.06769
1254.58594	1606.44431
1253.50684	1887.98317
1252.42773	1895.74511
1251.34863	1874.37993
1250.26856	1758.87595
1249.18945	1999.98777
1248.10938	1713.3863
1247.02832	1889.41041
1245.94824	1690.31734
1244.86719	1914.4053
1243.78613	1761.85164
1242.70508	1731.76329
1241.62305	1711.37011
1240.54102	1422.67259
1239.45898	1367.37141
1238.37695	1410.71317
1237.29492	1312.71649
1236.21191	1332.73036
1235.12891	1261.32019
1234.0459	1458.16607
1232.96191	1239.26931
1231.87891	1442.26937
1230.79492	1242.15209
1229.70996	1229.87615
1228.62598	1129.65437
1227.54102	583.80739
1226.45606	1311.96901
1225.37109	1147.78047
1224.28613	794.6374
1223.20019	1167.58689
1222.11426	997.38605
1221.02832	845.74871
1219.94238	857.47285
1218.85547	685.54843
1217.76856	678.19911
1216.68164	917.93941
1215.59375	793.8389
1214.50684	765.21402
1213.41894	761.94163
1212.33106	1024.7711
1211.24219	1101.53859
1210.1543	579.22135
1209.06543	698.00923
1207.97656	838.13353
1206.88672	923.57988
1205.79785	825.26011
1204.70801	806.07162
1203.61816	1062.74296
1202.52734	1137.9327
1201.43652	615.99295
1200.34668	979.24485
1199.25488	960.61898
1198.16406	987.59049
1197.07227	887.10573
1195.98144	806.22335
1194.88867	815.83692
1193.79688	722.6907
1192.7041	510.76681
1191.61231	468.83309
1190.51856	458.52044
1189.42578	541.4031
1188.33203	438.26527
1187.23828	-86.58125
1186.14453	281.44833
1185.05078	354.50901
1183.95606	452.66065
1182.86133	347.93319
1181.7666	315.50761
1180.67188	272.03691
1179.57617	241.77364
1178.48047	300.30115
1177.38477	241.56244
1176.28906	359.05087
1175.19238	307.97566
1174.0957	346.88359
1172.99902	258.45635
1171.90234	567.99257
1170.80469	249.67802
1169.70703	329.67243
1168.60938	289.21511
1167.51172	291.14592
1166.41309	112.1552
1165.31445	195.05772
1164.21582	659.55106
1163.11719	798.17164
1162.01758	844.45445
1160.91797	1141.29792
1159.81836	1343.2013
1158.71777	1460.00119
1157.61816	1442.19307
1156.51758	1459.52386
1155.41699	1560.13982
1154.31543	1321.29445
1153.21387	1407.13949
1152.11231	1900.26486
1151.01074	1926.3796
1149.90918	1667.41366
1148.80664	1671.23823
1147.7041	1732.4864
1146.60156	1966.75654
1145.49805	1898.42582
1144.39551	1887.48576
1143.29199	1664.4523
1142.1875	1843.84218
1141.08398	1896.25091
1139.97949	1710.13608
1138.875	1565.42649
1137.77051	1803.35189
1136.66504	1624.24513
1135.56055	1911.81294
1134.45508	2118.06148
1133.34863	1804.45906
1132.24316	1669.86648
1131.13672	1855.16063
1130.03027	1803.61456
1128.92383	1731.95477
1127.81641	1759.22131
1126.70898	1786.95349
1125.60156	1665.55226
1124.49414	1677.46304
1123.38574	1751.21651
1122.27832	1693.1156
1121.16894	1615.01689
1120.06055	1343.92104
1118.95117	1409.63539
1117.84277	1485.04235
1116.73242	1545.02702
1115.62305	1687.69166
1114.51269	1355.34143
1113.40332	1110.84386
1112.29199	951.27099
1111.18164	979.99754
1110.07031	1233.39187
1108.95898	1359.47083
1107.84766	1313.93975
1106.73633	1026.58692
1105.62402	831.59924
1104.51172	1204.66989
1103.39941	1340.08497
1102.28613	1494.01075
1101.17383	1306.37102
1100.06055	1496.07678
1098.94629	1515.76035
1097.83301	1462.45565
1096.71875	1551.40406
1095.60449	1613.33592
1094.49023	1568.51864
1093.375	1513.89384
1092.25977	1642.72178
1091.14453	1349.78516
1090.0293	1433.0853
1088.91309	1324.27096
1087.79785	1160.23383
1086.68164	958.55387
1085.56445	788.45858
1084.44824	1268.74489
1083.33106	1233.66823
1082.21289	954.75143
1081.0957	991.43523
1079.97754	887.6176
1078.85938	952.67669
1077.74121	898.51553
1076.62305	794.27447
1075.50391	430.78837
1074.38477	728.9721
1073.26563	658.89471
1072.14551	428.25971
1071.02637	219.17969
1069.90625	300.50914
1068.78516	296.10163
1067.66504	35.72225
1066.54394	123.71538
1065.42285	201.16625
1064.30078	-67.65118
1063.17969	102.94015
1062.05762	164.25219
1060.93555	93.1298
1059.81348	180.75737
1058.69043	723.02045
1057.56738	467.94399
1056.44434	282.92143
1055.32031	738.78541
1054.19727	870.05755
1053.07324	988.78423
1051.94824	1098.28727
1050.82422	1380.25573
1049.69922	1609.08349
1048.57422	1569.25042
1047.44922	1101.30951
1046.32324	992.05083
1045.19727	1047.34421
1044.07129	655.76252
1042.94531	585.82025
1041.81836	408.88055
1040.69238	508.71808
1039.56445	447.8666
1038.4375	299.90383
1037.30957	459.9118
1036.18164	468.80122
1035.05371	258.60256
1033.92578	719.98522
1032.79688	781.99301
1031.66797	620.09836
1030.53906	472.30117
1029.40918	561.52942
1028.2793	862.9108
1027.14941	549.60855
1026.01953	943.94477
1024.88867	360.31927
1023.75879	248.68588
1022.62695	530.14655
1021.49609	610.31088
1020.36426	828.68196
1019.23242	784.62174
1018.10059	679.35958
1016.96875	755.86554
1015.83594	614.16988
1014.70313	781.14011
1013.57031	959.98549
1012.43652	1001.23868
1011.30273	822.05297
1010.16895	1166.35605
1009.03516	1168.7061
1007.90039	1443.56099
1006.7666	1736.38088
1005.63086	2440.48226
1004.49609	2688.38803
1003.36035	3388.38657
1002.22461	3665.60912
1001.08887	3534.28684
999.95313	3490.7588
998.81641	3351.91279
997.67969	3129.68495
996.54297	3146.28432
995.40527	3172.37204
994.26758	3531.17461
993.12988	3915.24624
991.99219	4046.08298
990.85352	4391.19761
989.71484	4685.1484
988.57617	5446.16001
987.4375	5829.78844
986.29785	6136.95258
985.1582	6520.84751
984.01855	6780.11956
982.87793	7043.45557
981.7373	7579.78662
980.59668	7563.51325
979.45605	7816.57327
978.31445	7796.3754
977.17285	7803.18907
976.03125	7978.85934
974.88965	8192.44652
973.74707	8404.82239
972.60449	8498.65563
971.46191	8975.77523
970.31836	8795.21229
969.17578	8881.03589
968.03223	9150.8884
966.8877	9358.87759
965.74414	9591.67549
964.59961	9617.05443
963.45508	9797.03399
962.30957	9669.71725
961.16406	10210.6971
960.01855	10339.51939
958.87305	10292.07561
957.72754	10393.80458
956.58105	10541.06801
955.43457	10663.59576
954.28809	10809.69827
953.14063	11040.64526
951.99316	11269.14409
950.8457	11083.96156
949.69727	11548.92578
948.5498	11539.87642
947.40137	11704.7983
946.25293	12141.60832
945.10352	12414.66541
943.9541	12780.82999
942.80469	13058.64541
941.65527	13373.66001
940.50488	13721.81276
939.35449	13669.73186
938.2041	13295.75843
937.05371	12888.88051
935.90234	12183.4877
934.75098	11690.32911
933.59961	10980.04582
932.44727	9908.97762
931.29492	8870.80516
930.14258	7284.3478
928.99023	6181.61343
927.83691	4467.51661
926.68359	3527.14022
925.53027	2660.30155
924.37598	2073.49883
923.22266	1870.14512
922.06836	1331.11182
920.91309	1055.23547
919.75879	927.03267
918.60352	1076.97804
917.44824	654.11366
916.29199	345.49279
915.13672	378.07925
913.98047	622.86779
912.82324	744.0568
911.66699	459.26984
910.50977	367.35825
909.35254	138.80653
908.19531	210.75685
907.03711	232.89134
905.87891	564.10558
904.7207	330.71235
903.56152	429.6836
902.40332	188.88763
901.24414	315.22548
900.08398	190.29044
898.9248	250.835
897.76465	245.61205
896.60449	285.74832
895.44336	381.26511
894.2832	170.03626
893.12207	451.18294
891.95996	583.17353
890.79883	577.28714
889.63672	964.39166
888.47461	880.80653
887.31152	1217.68071
886.14941	1358.67644
884.98633	1708.93746
883.82324	2126.67001
882.65918	2497.44506
881.49512	2700.11116
880.33105	3127.7864
879.16699	3051.64957
878.00195	2744.20543
876.83691	2913.15202
875.67188	2410.19951
874.50684	2115.15479
873.34082	1618.66457
872.1748	1433.35134
871.00781	1294.44172
869.8418	1198.68219
868.6748	606.01884
867.50781	683.96895
866.33984	306.62614
865.17285	534.49294
864.00488	68.1172
862.83594	174.87584
861.66797	346.49224
860.49902	170.8275
859.33008	158.4716
858.16016	148.13306
856.99121	158.08917
855.82129	368.5669
854.65039	153.3979
853.48047	133.55237
852.30957	197.23057
851.13867	228.691
849.9668	267.71145
848.7959	435.01111
847.62402	533.94817
846.45117	476.81257
845.2793	543.15539
844.10645	639.25555
842.93359	865.07283
841.75977	652.05592
840.58691	663.61125
839.41309	628.40109
838.23926	669.72652
837.06445	694.41028
835.88965	740.89369
834.71484	703.37726
833.54004	282.53342
832.36426	346.9491
831.18848	547.5191
830.0127	402.11808
828.83594	438.43366
827.65918	528.14341
826.48242	255.18521
825.30566	357.18858
824.12793	547.73501
822.9502	657.18796
821.77246	561.55901
820.59375	817.17518
819.41602	564.42924
818.2373	658.1002
817.05762	697.69289
815.87793	885.67949
814.69824	797.82067
813.51855	904.10015
812.33887	892.84883
811.1582	671.9126
809.97754	659.62238
808.7959	870.04504
807.61523	725.81041
806.43359	420.99713
805.25098	356.59977
804.06934	661.93601
802.88672	460.23201
801.7041	573.87219
800.52051	158.76953
799.33789	344.10129
798.1543	321.79713
796.96973	261.43219
795.78613	102.48138
794.60156	289.07666
793.41699	24.64189
792.23145	0.77949
791.04688	92.81095
789.86035	363.8995
788.6748	90.93123
787.48926	266.25612
786.30273	436.87389
785.11523	388.259
783.92871	225.21813
782.74121	142.31606
781.55371	304.85669
780.36621	352.98118
779.17773	218.62499
777.98926	417.2903
776.80078	271.38443
775.6123	228.56581
774.42285	435.15652
773.2334	448.83114
772.04297	517.36027
770.85352	384.1118
769.66309	385.91726
768.47168	924.50602
767.28125	846.21842
766.08984	861.0519
764.89844	788.84711
763.70605	724.97947
762.51465	739.28141
761.32227	667.79594
760.12891	605.80895
758.93652	790.47683
757.74316	342.10078
756.5498	740.21631
755.35547	521.85723
754.16211	545.31218
752.9668	409.87984
751.77246	667.25727
750.57715	674.54444
749.38281	385.54294
748.18652	501.26862
746.99121	333.24207
745.79492	519.08274
744.59863	342.71061
743.40137	472.96897
742.20508	441.82366
741.00781	255.26982
739.81055	308.64001
738.6123	245.08755
737.41406	350.5812
736.21582	384.98243
735.0166	168.59347
733.81836	166.97055
732.61914	187.11803
731.41895	442.79835
730.21973	443.88357
729.01953	83.93689
727.81934	-69.96516
726.61816	240.58534
725.41699	246.37348
724.21582	19.67646
723.01465	230.75018
721.8125	232.97796
720.61035	529.39271
719.4082	406.03802
718.20508	648.3873
717.00195	615.09773
715.79883	656.7739
714.5957	734.30632
713.3916	592.13308
712.1875	804.3484
710.98242	972.69668
709.77832	1002.5199
708.57324	981.60928
707.36719	1195.3449
706.16211	1235.0847
704.95605	1338.7176
703.75	1292.39824
702.54297	1509.78954
701.33691	1536.71191
700.12988	1573.82621
698.92188	1793.41998
697.71484	1929.01833
696.50684	1899.38723
695.29785	2128.7584
694.08984	2280.68615
692.88086	2274.38413
691.67188	2477.55312
690.46289	2767.25157
689.25293	2743.29239
688.04297	2811.28523
686.83301	3039.22185
685.62207	3221.66801
684.41113	3381.69265
683.2002	3367.11649
681.98828	3560.33094
680.77637	3877.80429
679.56445	4113.21499
678.35254	4334.94433
677.13965	4665.8121
675.92676	4615.68652
674.71387	4444.54823
673.5	4342.71448
672.28613	4084.62234
671.07227	3842.88533
669.8584	3656.5594
668.64355	3550.11299
667.42871	3597.77837
666.21289	3459.33138
664.99805	3282.28735
663.78223	3339.99142
662.56543	3459.24777
661.34961	3403.92396
660.13281	2935.42129
658.91602	2932.84718
657.69824	3153.82155
656.48047	3131.04501
655.2627	3080.21284
654.04492	3161.78081
652.82617	3210.61405
651.60742	3168.67973
650.38867	3102.43812
649.16895	3309.98211
647.94922	3233.57878
646.72949	3849.68257
645.50879	3832.34722
644.28809	4224.16417
643.06738	4186.10306
641.84668	4362.19389
640.625	4747.30597
639.40332	4971.73208
638.18164	5555.82415
