#Wave		#Intensity
1800.532227	57289.738281
1799.562500	57844.578125
1798.592773	57771.382813
1797.623047	57325.902344
1796.653320	57730.324219
1795.682617	57677.718750
1794.712891	57804.757813
1793.742188	57536.640625
1792.771484	57427.664063
1791.800781	57844.468750
1790.829102	57955.980469
1789.858398	58062.312500
1788.886719	57814.898438
1787.915039	58502.910156
1786.943359	58160.707031
1785.970703	57608.593750
1784.999023	58093.902344
1784.026367	58394.660156
1783.053711	57719.941406
1782.081055	58376.414063
1781.107422	58502.917969
1780.134766	58278.859375
1779.161133	58029.304688
1778.187500	58327.140625
1777.213867	58090.457031
1776.239258	58209.203125
1775.265625	58486.367188
1774.291016	59072.613281
1773.316406	58912.601563
1772.341797	58290.316406
1771.366211	58730.671875
1770.391602	58874.664063
1769.416016	58273.171875
1768.440430	58708.152344
1767.464844	58681.082031
1766.488281	58299.386719
1765.512695	58956.011719
1764.536133	59041.105469
1763.559570	59029.277344
1762.583008	59496.703125
1761.605469	58763.488281
1760.628906	58996.339844
1759.651367	59369.218750
1758.673828	59392.980469
1757.696289	59131.496094
1756.717773	59015.250000
1755.740234	59464.179688
1754.761719	58841.421875
1753.783203	59458.148438
1752.804688	59690.460938
1751.825195	59441.929688
1750.846680	59475.785156
1749.867188	59415.542969
1748.887695	59812.902344
1747.908203	59869.523438
1746.927734	60464.828125
1745.947266	60071.613281
1744.967773	59195.937500
1743.987305	59912.910156
1743.005859	59921.195313
1742.025391	60091.941406
1741.043945	59610.347656
1740.063477	60166.781250
1739.081055	59933.984375
1738.099609	60137.550781
1737.118164	60216.773438
1736.135742	60070.300781
1735.153320	60397.921875
1734.170898	60345.238281
1733.188477	60743.617188
1732.206055	60908.753906
1731.222656	60286.085938
1730.239258	60663.964844
1729.255859	60770.777344
1728.272461	60454.796875
1727.288086	60923.519531
1726.304688	60635.464844
1725.320313	60787.718750
1724.335938	61154.906250
1723.350586	60783.515625
1722.366211	61006.433594
1721.380859	60865.250000
1720.395508	61388.804688
1719.410156	60623.468750
1718.424805	60884.121094
1717.439453	60899.660156
1716.453125	61157.617188
1715.466797	61046.851563
1714.480469	60862.921875
1713.494141	61032.390625
1712.506836	61981.476563
1711.519531	61913.503906
1710.533203	61371.375000
1709.544922	61338.851563
1708.557617	61913.953125
1707.570313	61183.085938
1706.582031	61216.136719
1705.593750	61637.203125
1704.605469	61614.718750
1703.616211	62153.910156
1702.627930	61650.351563
1701.638672	62461.218750
1700.649414	61887.312500
1699.660156	62423.484375
1698.670898	62373.167969
1697.680664	62297.714844
1696.690430	62383.257813
1695.700195	62493.910156
1694.709961	62247.503906
1693.719727	62619.550781
1692.728516	62755.207031
1691.738281	62310.390625
1690.747070	62451.074219
1689.754883	62531.417969
1688.763672	62656.921875
1687.771484	62699.527344
1686.780273	62127.140625
1685.788086	62546.261719
1684.794922	62990.304688
1683.802734	62756.847656
1682.809570	62480.847656
1681.817383	62746.585938
1680.823242	62987.144531
1679.830078	63122.328125
1678.836914	62743.714844
1677.842773	63683.160156
1676.848633	63019.007813
1675.854492	63249.230469
1674.860352	63208.925781
1673.865234	63619.265625
1672.871094	63281.035156
1671.875977	63305.800781
1670.880859	63525.710938
1669.885742	63637.964844
1668.889648	63805.187500
1667.893555	63982.343750
1666.897461	63594.429688
1665.901367	64116.476563
1664.905273	64230.980469
1663.908203	64020.628906
1662.912109	64504.792969
1661.915039	64521.734375
1660.917969	64219.058594
1659.919922	64715.359375
1658.922852	64392.789063
1657.924805	63960.546875
1656.926758	64648.699219
1655.928711	64777.820313
1654.929688	65163.757813
1653.931641	65407.410156
1652.932617	65152.378906
1651.933594	65395.929688
1650.934570	65793.875000
1649.934570	65347.070313
1648.935547	65849.476563
1647.935547	65487.503906
1646.935547	65715.781250
1645.935547	66469.226563
1644.934570	66241.742188
1643.933594	66800.671875
1642.933594	66904.093750
1641.931641	66925.382813
1640.930664	66459.234375
1639.929688	67109.648438
1638.927734	67262.625000
1637.925781	67880.296875
1636.923828	68080.257813
1635.921875	67815.554688
1634.918945	68447.632813
1633.916016	68711.914063
1632.913086	69120.093750
1631.910156	69416.390625
1630.907227	69340.296875
1629.903320	69899.445313
1628.900391	69773.656250
1627.896484	69362.671875
1626.891602	70087.617188
1625.887695	70118.046875
1624.882813	70017.085938
1623.878906	69764.984375
1622.874023	70102.703125
1621.868164	70665.718750
1620.863281	70418.578125
1619.857422	70847.570313
1618.851563	70479.171875
1617.845703	70927.773438
1616.839844	71522.203125
1615.833008	71327.085938
1614.827148	71174.093750
1613.820313	71313.007813
1612.813477	71184.804688
1611.805664	71689.554688
1610.798828	71934.554688
1609.791016	71848.304688
1608.783203	71354.398438
1607.775391	71465.906250
1606.767578	71565.023438
1605.758789	71723.359375
1604.750000	72069.257813
1603.741211	72501.398438
1602.732422	72040.015625
1601.723633	72972.835938
1600.713867	72536.210938
1599.704102	72990.085938
1598.694336	73096.093750
1597.684570	73271.085938
1596.673828	73569.242188
1595.664063	73450.804688
1594.653320	74093.726563
1593.642578	74115.632813
1592.630859	74167.078125
1591.620117	74245.585938
1590.608398	74548.078125
1589.596680	74235.125000
1588.584961	74407.062500
1587.573242	74773.296875
1586.560547	74706.453125
1585.547852	74078.906250
1584.535156	73967.968750
1583.522461	74169.265625
1582.509766	74168.937500
1581.496094	74419.257813
1580.482422	74642.437500
1579.468750	74558.492188
1578.455078	74874.867188
1577.440430	75095.359375
1576.426758	75082.546875
1575.412109	75140.906250
1574.397461	75896.125000
1573.381836	76005.804688
1572.367188	76235.632813
1571.351563	76722.851563
1570.335938	76324.757813
1569.320313	76772.531250
1568.304688	77212.765625
1567.288086	77304.867188
1566.271484	78048.585938
1565.254883	78429.492188
1564.238281	78504.140625
1563.221680	79068.414063
1562.204102	79133.093750
1561.186523	79244.250000
1560.168945	79064.179688
1559.151367	79138.601563
1558.132813	79371.960938
1557.115234	78896.078125
1556.096680	78474.171875
1555.078125	78494.859375
1554.058594	78381.117188
1553.040039	77661.476563
1552.020508	77310.984375
1551.000977	77966.882813
1549.981445	76561.585938
1548.960938	77131.914063
1547.941406	76691.492188
1546.920898	75997.445313
1545.900391	76569.960938
1544.879883	76739.750000
1543.858398	76080.250000
1542.836914	76135.453125
1541.815430	76183.320313
1540.793945	76267.718750
1539.772461	76488.546875
1538.750000	76592.335938
1537.728516	76581.585938
1536.706055	76787.593750
1535.683594	76956.984375
1534.660156	76510.398438
1533.637695	76806.328125
1532.614258	76961.000000
1531.590820	77020.718750
1530.566406	77048.789063
1529.542969	77108.453125
1528.518555	77304.257813
1527.494141	77186.382813
1526.469727	77284.859375
1525.445313	77640.859375
1524.420898	77457.382813
1523.395508	77815.625000
1522.370117	77870.164063
1521.344727	77502.218750
1520.318359	77202.382813
1519.292969	78434.062500
1518.266602	78466.578125
1517.240234	78263.750000
1516.213867	78795.921875
1515.186523	78731.328125
1514.159180	79124.976563
1513.131836	79394.843750
1512.104492	79599.156250
1511.077148	79403.593750
1510.049805	79462.460938
1509.021484	79613.343750
1507.993164	80238.765625
1506.964844	80004.476563
1505.935547	80237.437500
1504.907227	80167.796875
1503.877930	80850.648438
1502.848633	80626.078125
1501.818359	79792.125000
1500.789063	80370.648438
1499.758789	80448.500000
1498.728516	80400.617188
1497.698242	80352.757813
1496.667969	80978.992188
1495.636719	80455.164063
1494.606445	80740.585938
1493.575195	80883.429688
1492.542969	81002.062500
1491.511719	81127.890625
1490.479492	81002.695313
1489.448242	81410.734375
1488.415039	81201.101563
1487.382813	81864.554688
1486.350586	81741.710938
1485.317383	82303.523438
1484.284180	82178.218750
1483.250977	82725.242188
1482.216797	82563.750000
1481.183594	82614.289063
1480.149414	82505.859375
1479.115234	83100.500000
1478.081055	82787.398438
1477.045898	83052.015625
1476.011719	83780.921875
1474.976563	83607.382813
1473.941406	83987.109375
1472.905273	84126.203125
1471.870117	84407.085938
1470.833984	84014.804688
1469.797852	84605.601563
1468.761719	84698.781250
1467.725586	84534.882813
1466.688477	84810.562500
1465.651367	84718.734375
1464.614258	84470.890625
1463.577148	84410.359375
1462.539063	84645.023438
1461.501953	84205.390625
1460.463867	84819.000000
1459.424805	85501.906250
1458.386719	85059.953125
1457.347656	85195.921875
1456.309570	85190.429688
1455.270508	85211.289063
1454.230469	84980.570313
1453.191406	85013.429688
1452.151367	84651.125000
1451.111328	84844.453125
1450.071289	84479.921875
1449.031250	84790.468750
1447.990234	83701.046875
1446.950195	84523.593750
1445.909180	83795.835938
1444.867188	83341.000000
1443.826172	83804.453125
1442.784180	83603.179688
1441.742188	83433.046875
1440.700195	83886.632813
1439.658203	84285.078125
1438.616211	83620.484375
1437.573242	83889.859375
1436.530273	84180.601563
1435.487305	84027.242188
1434.443359	83988.492188
1433.400391	84104.851563
1432.356445	84256.929688
1431.312500	84454.265625
1430.267578	84260.445313
1429.223633	85411.304688
1428.178711	84957.546875
1427.133789	85121.195313
1426.088867	85375.304688
1425.043945	85648.359375
1423.998047	85580.726563
1422.952148	85553.593750
1421.906250	85743.109375
1420.860352	85944.437500
1419.813477	86098.093750
1418.767578	87070.101563
1417.720703	86750.093750
1416.673828	87502.773438
1415.625977	87556.093750
1414.579102	88534.117188
1413.531250	88363.781250
1412.483398	88450.140625
1411.435547	88980.726563
1410.386719	88803.257813
1409.337891	89160.179688
1408.290039	89281.906250
1407.240234	89071.234375
1406.191406	89565.523438
1405.141602	89568.429688
1404.092773	90283.015625
1403.042969	90760.125000
1401.992188	90964.335938
1400.942383	91464.804688
1399.891602	92263.726563
1398.840820	93543.398438
1397.790039	94142.523438
1396.739258	94172.867188
1395.687500	95501.078125
1394.635742	96551.679688
1393.583984	97092.859375
1392.532227	97735.578125
1391.480469	98645.437500
1390.427734	99595.140625
1389.375000	99536.750000
1388.322266	100554.453125
1387.269531	100815.085938
1386.215820	101271.812500
1385.162109	101851.257813
1384.108398	101475.789063
1383.054688	102002.960938
1382.000977	102454.320313
1380.946289	102964.531250
1379.891602	103193.554688
1378.836914	103819.054688
1377.782227	103965.195313
1376.726563	104566.671875
1375.670898	104712.578125
1374.615234	104478.679688
1373.559570	104692.921875
1372.502930	105050.890625
1371.447266	105604.343750
1370.390625	104187.367188
1369.333984	103996.203125
1368.276367	103392.851563
1367.219727	103597.593750
1366.162109	103451.390625
1365.104492	102295.257813
1364.046875	100727.679688
1362.988281	100685.687500
1361.929688	100060.203125
1360.871094	99089.187500
1359.812500	99115.742188
1358.753906	98178.226563
1357.694336	97520.843750
1356.634766	98198.742188
1355.575195	97304.273438
1354.515625	97476.804688
1353.456055	96437.218750
1352.395508	97708.906250
1351.334961	98155.937500
1350.274414	98537.046875
1349.212891	98542.484375
1348.152344	99007.820313
1347.090820	98006.703125
1346.029297	98432.070313
1344.966797	97860.617188
1343.905273	97887.257813
1342.842773	97895.125000
1341.780273	96698.382813
1340.717773	96134.765625
1339.655273	95529.210938
1338.591797	94497.632813
1337.528320	93304.906250
1336.464844	93273.882813
1335.401367	92170.835938
1334.336914	91489.476563
1333.272461	91180.398438
1332.208008	90885.484375
1331.143555	89968.585938
1330.079102	89227.429688
1329.013672	89356.218750
1327.948242	88846.875000
1326.882813	88253.617188
1325.817383	88130.187500
1324.750977	87670.453125
1323.684570	87010.062500
1322.618164	87237.187500
1321.551758	87468.875000
1320.484375	87121.664063
1319.417969	86790.921875
1318.350586	86252.687500
1317.282227	85947.906250
1316.214844	85834.468750
1315.146484	85406.328125
1314.079102	85453.882813
1313.009766	85743.781250
1311.941406	85218.046875
1310.873047	85065.250000
1309.803711	85075.554688
1308.734375	85139.398438
1307.665039	85037.914063
1306.594727	84664.140625
1305.525391	84113.664063
1304.455078	84175.304688
1303.384766	84590.492188
1302.313477	84128.726563
1301.243164	84022.906250
1300.171875	84144.937500
1299.100586	84359.882813
1298.028320	83580.179688
1296.957031	83964.742188
1295.884766	83933.367188
1294.812500	83716.210938
1293.740234	83773.117188
1292.667969	83502.687500
1291.594727	83264.859375
1290.521484	83198.828125
1289.448242	83058.585938
1288.375000	83287.171875
1287.300781	83462.335938
1286.226563	83463.531250
1285.152344	82984.906250
1284.078125	82877.273438
1283.003906	83063.937500
1281.928711	82986.437500
1280.853516	83126.664063
1279.778320	83401.140625
1278.703125	83085.148438
1277.626953	83271.546875
1276.550781	83270.421875
1275.474609	83796.796875
1274.398438	83728.476563
1273.321289	83334.093750
1272.245117	83573.398438
1271.167969	83902.765625
1270.089844	83575.601563
1269.012695	84286.078125
1267.934570	84203.851563
1266.856445	84123.953125
1265.778320	84124.914063
1264.700195	85171.757813
1263.621094	84253.773438
1262.541992	83742.351563
1261.462891	84202.539063
1260.383789	83868.953125
1259.304688	83468.625000
1258.224609	83760.226563
1257.144531	83217.140625
1256.064453	82978.523438
1254.983398	83627.226563
1253.902344	83589.070313
1252.822266	82606.468750
1251.740234	83217.984375
1250.659180	82859.859375
1249.578125	83443.429688
1248.496094	83603.257813
1247.414063	83496.085938
1246.331055	83200.296875
1245.249023	82982.835938
1244.166016	83876.203125
1243.083008	83594.304688
1242.000000	83707.890625
1240.916016	83205.507813
1239.833008	83130.703125
1238.749023	82810.117188
1237.665039	82650.437500
1236.580078	82222.148438
1235.496094	82294.531250
1234.411133	82559.687500
1233.326172	81766.789063
1232.241211	82327.906250
1231.155273	81553.726563
1230.069336	81378.453125
1228.983398	81359.171875
1227.897461	81436.179688
1226.811523	81070.789063
1225.724609	80581.796875
1224.637695	80271.710938
1223.550781	80181.648438
1222.463867	80384.750000
1221.375977	79990.171875
1220.288086	80671.648438
1219.200195	80032.273438
1218.112305	79830.210938
1217.023438	81222.757813
1215.934570	81194.343750
1214.845703	80459.335938
1213.756836	80906.632813
1212.667969	80652.000000
1211.578125	80968.796875
1210.488281	80277.835938
1209.398438	80676.804688
1208.307617	80497.781250
1207.217773	80234.335938
1206.126953	80375.078125
1205.036133	79776.242188
1203.944336	79919.296875
1202.853516	79373.265625
1201.761719	79130.843750
1200.669922	79289.890625
1199.578125	78361.273438
1198.485352	78344.875000
1197.392578	78241.875000
1196.299805	78022.695313
1195.207031	77837.781250
1194.114258	77411.507813
1193.020508	77493.218750
1191.926758	77187.851563
1190.833008	76397.765625
1189.739258	76654.859375
1188.644531	76331.640625
1187.549805	76110.921875
1186.455078	76311.039063
1185.360352	76440.585938
1184.264648	76010.812500
1183.168945	76399.468750
1182.073242	76133.492188
1180.977539	76153.890625
1179.880859	76124.304688
1178.785156	76087.914063
1177.688477	76666.843750
1176.590820	76146.820313
1175.494141	76067.312500
1174.396484	75840.335938
1173.298828	76348.492188
1172.201172	75688.328125
1171.103516	75014.828125
1170.004883	75298.367188
1168.906250	75572.710938
1167.807617	75468.476563
1166.708984	75332.562500
1165.609375	76193.429688
1164.510742	75812.804688
1163.411133	75584.054688
1162.310547	75439.148438
1161.210938	75957.484375
1160.110352	75525.164063
1159.009766	75961.804688
1157.909180	75405.242188
1156.807617	76054.296875
1155.707031	75825.796875
1154.605469	75726.234375
1153.502930	75256.054688
1152.401367	75683.132813
1151.298828	75321.593750
1150.197266	74948.906250
1149.093750	73876.335938
1147.991211	74007.570313
1146.887695	73718.898438
1145.785156	73468.703125
1144.681641	73117.085938
1143.577148	73169.390625
1142.473633	73350.234375
1141.369141	73341.578125
1140.264648	74108.437500
1139.160156	73317.515625
1138.054688	73049.718750
1136.949219	73428.625000
1135.843750	73719.523438
1134.738281	73604.937500
1133.632813	72954.523438
1132.526367	73938.656250
1131.419922	73871.343750
1130.313477	73516.031250
1129.207031	73970.742188
1128.099609	74020.406250
1126.992188	74056.554688
1125.884766	73906.078125
1124.777344	74061.359375
1123.668945	74618.828125
1122.560547	73931.328125
1121.452148	73875.328125
1120.343750	73745.242188
1119.234375	73848.726563
1118.125000	73218.070313
1117.015625	73072.468750
1115.906250	73068.304688
1114.796875	72321.539063
1113.686523	73008.375000
1112.576172	72302.289063
1111.465820	72547.140625
1110.354492	72702.218750
1109.243164	72460.546875
1108.132813	72828.437500
1107.020508	72660.757813
1105.909180	72175.101563
1104.796875	72206.914063
1103.684570	73033.476563
1102.572266	72172.000000
1101.459961	72557.359375
1100.346680	72132.625000
1099.233398	72182.289063
1098.120117	72091.031250
1097.006836	72042.289063
1095.892578	71989.093750
1094.778320	71991.789063
1093.664063	72155.367188
1092.549805	72265.257813
1091.435547	71789.890625
1090.320313	72205.734375
1089.205078	72266.414063
1088.088867	72389.554688
1086.973633	72389.906250
1085.857422	72294.304688
1084.741211	71989.046875
1083.625000	72433.289063
1082.507813	72121.429688
1081.391602	71945.687500
1080.274414	71977.304688
1079.157227	71901.945313
1078.039063	71699.609375
1076.920898	71880.484375
1075.802734	71816.312500
1074.684570	71545.085938
1073.566406	71545.554688
1072.447266	71842.023438
1071.328125	71829.070313
1070.208984	71611.453125
1069.089844	71640.804688
1067.969727	71892.507813
1066.849609	71846.187500
1065.729492	71864.343750
1064.609375	71138.015625
1063.488281	71554.015625
1062.367188	71230.117188
1061.246094	71617.039063
1060.125000	71675.164063
1059.002930	71489.070313
1057.881836	71633.757813
1056.759766	71512.093750
1055.636719	71479.218750
1054.514648	71648.195313
1053.391602	71916.890625
1052.268555	71828.507813
1051.145508	71489.671875
1050.021484	71605.304688
1048.897461	71556.914063
1047.773438	71978.171875
1046.649414	71402.593750
1045.525391	71983.132813
1044.400391	71883.765625
1043.275391	71222.242188
1042.150391	71696.210938
1041.024414	72165.554688
1039.899414	71334.054688
1038.773438	71805.476563
1037.646484	71434.289063
1036.520508	71220.203125
1035.393555	71567.578125
1034.266602	71764.539063
1033.139648	72135.937500
1032.012695	72155.984375
1030.884766	71986.117188
1029.756836	71900.218750
1028.628906	72030.656250
1027.500977	72273.585938
1026.372070	72006.742188
1025.243164	72512.062500
1024.114258	71837.265625
1022.985352	71949.921875
1021.855469	72355.718750
1020.725586	72051.648438
1019.595703	71569.210938
1018.465820	72142.257813
1017.334961	72027.835938
1016.204102	71347.500000
1015.073242	71625.187500
1013.942383	71832.312500
1012.810547	71819.273438
1011.678711	71861.234375
1010.546875	72444.335938
1009.415039	71883.515625
1008.282227	72378.398438
1007.150391	72409.195313
1006.017578	73046.617188
1004.883789	73918.890625
1003.750977	74037.210938
1002.617188	75106.578125
1001.483398	74302.234375
1000.349609	73946.132813
999.214844	73706.515625
998.080078	73524.062500
996.945313	72858.953125
995.810547	72801.789063
994.674805	72562.609375
993.540039	72417.812500
992.404297	72268.687500
991.267578	72132.773438
990.131836	72292.750000
988.995117	71975.031250
987.858398	72450.398438
986.721680	72086.781250
985.583984	71697.039063
984.446289	71423.476563
983.308594	71870.085938
982.170898	71463.117188
981.033203	71682.000000
979.894531	71154.937500
978.755859	71924.851563
977.617188	71830.835938
976.477539	72084.414063
975.337891	72031.921875
974.198242	71739.109375
973.058594	71699.804688
971.918945	71824.320313
970.778320	71760.992188
969.637695	72003.312500
968.497070	72099.296875
967.355469	72260.695313
966.214844	72795.078125
965.073242	71778.414063
963.930664	72186.187500
962.789063	72340.867188
961.646484	72770.140625
960.503906	72194.546875
