#Wave		#Intensity
1800.532227	40726.753906
1799.562500	40665.105469
1798.592773	40754.570313
1797.623047	41031.437500
1796.653320	41100.253906
1795.682617	40922.636719
1794.712891	40991.441406
1793.742188	40844.703125
1792.771484	41039.179688
1791.800781	40838.632813
1790.829102	41476.613281
1789.858398	41265.796875
1788.886719	41103.761719
1787.915039	40721.410156
1786.943359	41210.296875
1785.970703	41184.125000
1784.999023	41029.906250
1784.026367	41008.898438
1783.053711	41067.250000
1782.081055	41522.296875
1781.107422	41350.214844
1780.134766	41436.601563
1779.161133	41479.468750
1778.187500	41629.726563
1777.213867	41455.195313
1776.239258	41119.675781
1775.265625	41384.925781
1774.291016	41274.421875
1773.316406	41455.218750
1772.341797	41845.398438
1771.366211	41436.062500
1770.391602	41323.078125
1769.416016	41863.656250
1768.440430	41855.273438
1767.464844	41423.289063
1766.488281	42152.312500
1765.512695	41580.144531
1764.536133	42035.960938
1763.559570	41747.066406
1762.583008	41934.992188
1761.605469	41630.933594
1760.628906	42063.433594
1759.651367	42011.691406
1758.673828	41944.683594
1757.696289	41982.113281
1756.717773	42131.562500
1755.740234	41682.714844
1754.761719	42025.585938
1753.783203	41996.800781
1752.804688	42189.367188
1751.825195	41987.589844
1750.846680	41913.046875
1749.867188	41907.179688
1748.887695	42008.085938
1747.908203	42009.824219
1746.927734	42390.175781
1745.947266	42302.914063
1744.967773	42185.203125
1743.987305	42245.304688
1743.005859	42376.472656
1742.025391	42647.203125
1741.043945	42575.195313
1740.063477	42340.808594
1739.081055	42750.914063
1738.099609	42676.378906
1737.118164	42480.148438
1736.135742	42922.933594
1735.153320	42711.515625
1734.170898	42639.574219
1733.188477	42299.066406
1732.206055	42270.300781
1731.222656	42869.710938
1730.239258	42686.363281
1729.255859	42915.785156
1728.272461	42967.914063
1727.288086	42875.761719
1726.304688	43347.917969
1725.320313	42575.183594
1724.335938	42680.449219
1723.350586	42816.011719
1722.366211	43184.128906
1721.380859	43001.027344
1720.395508	43520.593750
1719.410156	43079.757813
1718.424805	43076.144531
1717.439453	42736.601563
1716.453125	42849.222656
1715.466797	43002.191406
1714.480469	42950.628906
1713.494141	43047.988281
1712.506836	43786.210938
1711.519531	42465.570313
1710.533203	43105.242188
1709.544922	43515.179688
1708.557617	43133.277344
1707.570313	43343.902344
1706.582031	43141.121094
1705.593750	43555.750000
1704.605469	43015.429688
1703.616211	43492.878906
1702.627930	43260.003906
1701.638672	43613.839844
1700.649414	43715.812500
1699.660156	43274.140625
1698.670898	43652.914063
1697.680664	43878.078125
1696.690430	43280.695313
1695.700195	43591.335938
1694.709961	43756.031250
1693.719727	43626.562500
1692.728516	43321.222656
1691.738281	43425.562500
1690.747070	43781.066406
1689.754883	43907.871094
1688.763672	43688.085938
1687.771484	43488.476563
1686.780273	44052.011719
1685.788086	43905.101563
1684.794922	44076.902344
1683.802734	43654.101563
1682.809570	44069.164063
1681.817383	44308.523438
1680.823242	44367.277344
1679.830078	43749.238281
1678.836914	44321.816406
1677.842773	44069.839844
1676.848633	44088.503906
1675.854492	44625.597656
1674.860352	44153.347656
1673.865234	44567.531250
1672.871094	44513.484375
1671.875977	44219.214844
1670.880859	44402.945313
1669.885742	44166.347656
1668.889648	44590.101563
1667.893555	44336.054688
1666.897461	44482.101563
1665.901367	44590.597656
1664.905273	44506.625000
1663.908203	44640.046875
1662.912109	45188.078125
1661.915039	44694.445313
1660.917969	44795.285156
1659.919922	45070.828125
1658.922852	44859.554688
1657.924805	45122.492188
1656.926758	45068.468750
1655.928711	44934.640625
1654.929688	45501.656250
1653.931641	45003.750000
1652.932617	45580.488281
1651.933594	45815.535156
1650.934570	46040.511719
1649.934570	46272.871094
1648.935547	45837.570313
1647.935547	45873.132813
1646.935547	46553.554688
1645.935547	46235.457031
1644.934570	46539.707031
1643.933594	46804.015625
1642.933594	47227.441406
1641.931641	46884.578125
1640.930664	47176.007813
1639.929688	46870.585938
1638.927734	47363.246094
1637.925781	46829.250000
1636.923828	47339.109375
1635.921875	47406.546875
1634.918945	47173.402344
1633.916016	47635.691406
1632.913086	47730.332031
1631.910156	47728.117188
1630.907227	48423.296875
1629.903320	48624.406250
1628.900391	48088.621094
1627.896484	48257.468750
1626.891602	48716.386719
1625.887695	48619.742188
1624.882813	48570.234375
1623.878906	48577.742188
1622.874023	48969.312500
1621.868164	49001.503906
1620.863281	48429.335938
1619.857422	48731.539063
1618.851563	48674.625000
1617.845703	48640.007813
1616.839844	48595.503906
1615.833008	48724.214844
1614.827148	49035.933594
1613.820313	49119.980469
1612.813477	48877.578125
1611.805664	49443.714844
1610.798828	48813.265625
1609.791016	49216.074219
1608.783203	49618.718750
1607.775391	49700.054688
1606.767578	49452.875000
1605.758789	49874.972656
1604.750000	50205.546875
1603.741211	50094.164063
1602.732422	50261.679688
1601.723633	50298.359375
1600.713867	49829.328125
1599.704102	50157.097656
1598.694336	50371.308594
1597.684570	50684.035156
1596.673828	50557.902344
1595.664063	50865.535156
1594.653320	50938.976563
1593.642578	51315.371094
1592.630859	51598.023438
1591.620117	51402.875000
1590.608398	51409.667969
1589.596680	51854.566406
1588.584961	52085.191406
1587.573242	51476.761719
1586.560547	51650.789063
1585.547852	51537.003906
1584.535156	51278.195313
1583.522461	51641.437500
1582.509766	51687.472656
1581.496094	51932.527344
1580.482422	51334.796875
1579.468750	51604.378906
1578.455078	51898.410156
1577.440430	52504.140625
1576.426758	52373.179688
1575.412109	52843.574219
1574.397461	52938.343750
1573.381836	52831.898438
1572.367188	53402.468750
1571.351563	54056.183594
1570.335938	53826.976563
1569.320313	54313.644531
1568.304688	54525.617188
1567.288086	54374.855469
1566.271484	54674.921875
1565.254883	54612.359375
1564.238281	54138.417969
1563.221680	54440.785156
1562.204102	53959.726563
1561.186523	53899.796875
1560.168945	53678.398438
1559.151367	53474.210938
1558.132813	53715.242188
1557.115234	53425.539063
1556.096680	53265.523438
1555.078125	53015.132813
1554.058594	53119.195313
1553.040039	53000.871094
1552.020508	52726.250000
1551.000977	52822.972656
1549.981445	52641.281250
1548.960938	52889.339844
1547.941406	52505.113281
1546.920898	52470.011719
1545.900391	52564.230469
1544.879883	53175.554688
1543.858398	52328.187500
1542.836914	52473.578125
1541.815430	52548.207031
1540.793945	52732.484375
1539.772461	52212.425781
1538.750000	52333.343750
1537.728516	52512.671875
1536.706055	52241.375000
1535.683594	52776.136719
1534.660156	52585.226563
1533.637695	52506.351563
1532.614258	52656.246094
1531.590820	52776.878906
1530.566406	52948.542969
1529.542969	53120.132813
1528.518555	52892.898438
1527.494141	52955.031250
1526.469727	53009.843750
1525.445313	53448.558594
1524.420898	52601.929688
1523.395508	53152.273438
1522.370117	53566.398438
1521.344727	53251.968750
1520.318359	53789.699219
1519.292969	54169.453125
1518.266602	54655.812500
1517.240234	54307.441406
1516.213867	54640.765625
1515.186523	55100.046875
1514.159180	55062.121094
1513.131836	54898.164063
1512.104492	54862.710938
1511.077148	54735.199219
1510.049805	54852.406250
1509.021484	54870.257813
1507.993164	54645.953125
1506.964844	55065.722656
1505.935547	54616.355469
1504.907227	54595.507813
1503.877930	54920.660156
1502.848633	55013.449219
1501.818359	54607.980469
1500.789063	55102.183594
1499.758789	54853.996094
1498.728516	54821.023438
1497.698242	55140.875000
1496.667969	55240.734375
1495.636719	55246.343750
1494.606445	55614.207031
1493.575195	55119.914063
1492.542969	55572.136719
1491.511719	55514.906250
1490.479492	55682.117188
1489.448242	56109.812500
1488.415039	55685.855469
1487.382813	55802.273438
1486.350586	55947.574219
1485.317383	56162.714844
1484.284180	56291.003906
1483.250977	56614.417969
1482.216797	56708.828125
1481.183594	56873.042969
1480.149414	57094.988281
1479.115234	56960.500000
1478.081055	56517.949219
1477.045898	56932.351563
1476.011719	57096.339844
1474.976563	57479.175781
1473.941406	57606.898438
1472.905273	57628.757813
1471.870117	57580.882813
1470.833984	57557.062500
1469.797852	57148.734375
1468.761719	57682.437500
1467.725586	57065.250000
1466.688477	57315.339844
1465.651367	57330.000000
1464.614258	57135.785156
1463.577148	57008.855469
1462.539063	57474.718750
1461.501953	57527.710938
1460.463867	57412.765625
1459.424805	57549.679688
1458.386719	57923.921875
1457.347656	57149.691406
1456.309570	57485.503906
1455.270508	57607.902344
1454.230469	56961.179688
1453.191406	57093.210938
1452.151367	57160.523438
1451.111328	56899.773438
1450.071289	57000.605469
1449.031250	56345.082031
1447.990234	56783.378906
1446.950195	56616.210938
1445.909180	56551.964844
1444.867188	56356.210938
1443.826172	56665.019531
1442.784180	56230.273438
1441.742188	56338.218750
1440.700195	56054.246094
1439.658203	56616.082031
1438.616211	56291.558594
1437.573242	56774.304688
1436.530273	56297.078125
1435.487305	56333.246094
1434.443359	56390.878906
1433.400391	57204.847656
1432.356445	57295.667969
1431.312500	56909.437500
1430.267578	57288.804688
1429.223633	57348.546875
1428.178711	57730.042969
1427.133789	57896.898438
1426.088867	57932.644531
1425.043945	57758.746094
1423.998047	58713.796875
1422.952148	58349.312500
1421.906250	57949.265625
1420.860352	58380.050781
1419.813477	58539.371094
1418.767578	58558.253906
1417.720703	59114.707031
1416.673828	58750.570313
1415.625977	59156.949219
1414.579102	59446.675781
1413.531250	59344.125000
1412.483398	59500.617188
1411.435547	59417.093750
1410.386719	59464.242188
1409.337891	59888.949219
1408.290039	60109.296875
1407.240234	60360.402344
1406.191406	60806.015625
1405.141602	60978.566406
1404.092773	62223.332031
1403.042969	62091.917969
1401.992188	62854.550781
1400.942383	63353.703125
1399.891602	63369.089844
1398.840820	64178.375000
1397.790039	64394.976563
1396.739258	64855.480469
1395.687500	66068.945313
1394.635742	65820.898438
1393.583984	67324.843750
1392.532227	67573.695313
1391.480469	68437.710938
1390.427734	68698.054688
1389.375000	69625.343750
1388.322266	70528.593750
1387.269531	71152.460938
1386.215820	71312.718750
1385.162109	71657.257813
1384.108398	71573.945313
1383.054688	72303.382813
1382.000977	72550.648438
1380.946289	72280.625000
1379.891602	71850.156250
1378.836914	71799.921875
1377.782227	72375.125000
1376.726563	72091.187500
1375.670898	71510.109375
1374.615234	71450.531250
1373.559570	71166.945313
1372.502930	70980.140625
1371.447266	70425.687500
1370.390625	70229.671875
1369.333984	69880.585938
1368.276367	69091.109375
1367.219727	69764.570313
1366.162109	69069.632813
1365.104492	68716.343750
1364.046875	69116.414063
1362.988281	68753.835938
1361.929688	68720.804688
1360.871094	68927.718750
1359.812500	67956.273438
1358.753906	68459.523438
1357.694336	68464.179688
1356.634766	68471.179688
1355.575195	68565.109375
1354.515625	68276.054688
1353.456055	68745.812500
1352.395508	68121.000000
1351.334961	68064.648438
1350.274414	67578.726563
1349.212891	67574.132813
1348.152344	67707.984375
1347.090820	66633.578125
1346.029297	67210.859375
1344.966797	66535.648438
1343.905273	66866.531250
1342.842773	66658.132813
1341.780273	67091.960938
1340.717773	66016.648438
1339.655273	66101.367188
1338.591797	65689.523438
1337.528320	65654.843750
1336.464844	64873.351563
1335.401367	64834.171875
1334.336914	65164.750000
1333.272461	64170.917969
1332.208008	64312.015625
1331.143555	64109.253906
1330.079102	64173.132813
1329.013672	64295.425781
1327.948242	63824.000000
1326.882813	63950.980469
1325.817383	63341.968750
1324.750977	62677.144531
1323.684570	62295.167969
1322.618164	61985.730469
1321.551758	61655.402344
1320.484375	60697.394531
1319.417969	59674.449219
1318.350586	59918.695313
1317.282227	59962.246094
1316.214844	59450.773438
1315.146484	59340.519531
1314.079102	59092.781250
1313.009766	59150.437500
1311.941406	58970.406250
1310.873047	59107.257813
1309.803711	58496.429688
1308.734375	58926.718750
1307.665039	58753.851563
1306.594727	57975.875000
1305.525391	58915.632813
1304.455078	58363.625000
1303.384766	58349.179688
1302.313477	58348.695313
1301.243164	58371.457031
1300.171875	58201.257813
1299.100586	58242.628906
1298.028320	58546.558594
1296.957031	57965.203125
1295.884766	57760.371094
1294.812500	58143.160156
1293.740234	58263.425781
1292.667969	57861.335938
1291.594727	57777.367188
1290.521484	58048.445313
1289.448242	58061.898438
1288.375000	57648.578125
1287.300781	57996.027344
1286.226563	57304.667969
1285.152344	57371.566406
1284.078125	57083.859375
1283.003906	56856.511719
1281.928711	56877.121094
1280.853516	57414.187500
1279.778320	57080.386719
1278.703125	57091.667969
1277.626953	57056.644531
1276.550781	57003.121094
1275.474609	57382.265625
1274.398438	57506.800781
1273.321289	57971.242188
1272.245117	57903.683594
1271.167969	57914.750000
1270.089844	57981.277344
1269.012695	57860.605469
1267.934570	57834.699219
1266.856445	57979.722656
1265.778320	58136.230469
1264.700195	58299.593750
1263.621094	57987.375000
1262.541992	57516.039063
1261.462891	58214.726563
1260.383789	58059.574219
1259.304688	57927.546875
1258.224609	58148.378906
1257.144531	58170.847656
1256.064453	58165.640625
1254.983398	58831.039063
1253.902344	57712.859375
1252.822266	57926.578125
1251.740234	58179.351563
1250.659180	58006.046875
1249.578125	57897.269531
1248.496094	57461.703125
1247.414063	57571.683594
1246.331055	57626.398438
1245.249023	57724.789063
1244.166016	57705.851563
1243.083008	57801.878906
1242.000000	57472.601563
1240.916016	57462.910156
1239.833008	57393.480469
1238.749023	56724.484375
1237.665039	57328.191406
1236.580078	56967.187500
1235.496094	57104.531250
1234.411133	57166.066406
1233.326172	57037.093750
1232.241211	56690.207031
1231.155273	56487.976563
1230.069336	56597.738281
1228.983398	56042.488281
1227.897461	56145.410156
1226.811523	55915.945313
1225.724609	55290.136719
1224.637695	55482.492188
1223.550781	56055.003906
1222.463867	55482.218750
1221.375977	55768.281250
1220.288086	55736.027344
1219.200195	55474.917969
1218.112305	55364.933594
1217.023438	55691.945313
1215.934570	55097.062500
1214.845703	54943.769531
1213.756836	55359.816406
1212.667969	55709.402344
1211.578125	56111.398438
1210.488281	56497.226563
1209.398438	56604.203125
1208.307617	56156.144531
1207.217773	56222.035156
1206.126953	55701.183594
1205.036133	55735.183594
1203.944336	55034.367188
1202.853516	54840.335938
1201.761719	54543.734375
1200.669922	53980.433594
1199.578125	54030.699219
1198.485352	53966.960938
1197.392578	53376.773438
1196.299805	53789.425781
1195.207031	53456.949219
1194.114258	53839.796875
1193.020508	53691.894531
1191.926758	53519.003906
1190.833008	53277.898438
1189.739258	53530.730469
1188.644531	53314.742188
1187.549805	53069.269531
1186.455078	53205.988281
1185.360352	53181.199219
1184.264648	53115.496094
1183.168945	53531.679688
1182.073242	53481.832031
1180.977539	53286.593750
1179.880859	53423.074219
1178.785156	53159.796875
1177.688477	53979.671875
1176.590820	53357.710938
1175.494141	53078.714844
1174.396484	52888.328125
1173.298828	52781.957031
1172.201172	52428.398438
1171.103516	52492.238281
1170.004883	52272.644531
1168.906250	52669.695313
1167.807617	52196.332031
1166.708984	52767.687500
1165.609375	52856.289063
1164.510742	52607.394531
1163.411133	52376.714844
1162.310547	52847.929688
1161.210938	52630.871094
1160.110352	52438.789063
1159.009766	52760.363281
1157.909180	53036.558594
1156.807617	53570.449219
1155.707031	53735.562500
1154.605469	53798.878906
1153.502930	53376.246094
1152.401367	53238.500000
1151.298828	53243.132813
1150.197266	52881.859375
1149.093750	52534.285156
1147.991211	52089.769531
1146.887695	51582.234375
1145.785156	51465.332031
1144.681641	50777.632813
1143.577148	50960.960938
1142.473633	50961.531250
1141.369141	50865.132813
1140.264648	50536.574219
1139.160156	50634.140625
1138.054688	50889.402344
1136.949219	50766.054688
1135.843750	50645.007813
1134.738281	50778.488281
1133.632813	50659.734375
1132.526367	50901.203125
1131.419922	50816.226563
1130.313477	50729.031250
1129.207031	50806.097656
1128.099609	51085.554688
1126.992188	50272.019531
1125.884766	50578.441406
1124.777344	50808.308594
1123.668945	50676.261719
1122.560547	50786.921875
1121.452148	50569.570313
1120.343750	50462.351563
1119.234375	50566.246094
1118.125000	50122.328125
1117.015625	50518.019531
1115.906250	50235.863281
1114.796875	49884.269531
1113.686523	50649.851563
1112.576172	50291.589844
1111.465820	50186.828125
1110.354492	50106.765625
1109.243164	50279.984375
1108.132813	50078.933594
1107.020508	50028.054688
1105.909180	50281.800781
1104.796875	50835.496094
1103.684570	50334.488281
1102.572266	50274.636719
1101.459961	50011.164063
1100.346680	49902.175781
1099.233398	50001.261719
1098.120117	49661.964844
1097.006836	49678.324219
1095.892578	49996.464844
1094.778320	49836.171875
1093.664063	49539.640625
1092.549805	49884.406250
1091.435547	49811.343750
1090.320313	49999.582031
1089.205078	49864.003906
1088.088867	49465.082031
1086.973633	49738.070313
1085.857422	49674.023438
1084.741211	49552.000000
1083.625000	49659.746094
1082.507813	49807.582031
1081.391602	49596.421875
1080.274414	49648.359375
1079.157227	49740.382813
1078.039063	49366.726563
1076.920898	49879.753906
1075.802734	49666.562500
1074.684570	49342.132813
1073.566406	49467.500000
1072.447266	49908.843750
1071.328125	50062.957031
1070.208984	49740.925781
1069.089844	49554.707031
1067.969727	49702.117188
1066.849609	49940.617188
1065.729492	49483.281250
1064.609375	49186.144531
1063.488281	49475.695313
1062.367188	49876.187500
1061.246094	49472.542969
1060.125000	49650.816406
1059.002930	49882.292969
1057.881836	49876.179688
1056.759766	49321.972656
1055.636719	49457.964844
1054.514648	49702.582031
1053.391602	49876.125000
1052.268555	49628.339844
1051.145508	49855.019531
1050.021484	49257.179688
1048.897461	49822.843750
1047.773438	49690.460938
1046.649414	49425.242188
1045.525391	49695.996094
1044.400391	49898.003906
1043.275391	49710.371094
1042.150391	50113.660156
1041.024414	49884.015625
1039.899414	49787.183594
1038.773438	49840.773438
1037.646484	49865.589844
1036.520508	50292.722656
1035.393555	50385.941406
1034.266602	50012.886719
1033.139648	49871.949219
1032.012695	49843.710938
1030.884766	50049.554688
1029.756836	50100.765625
1028.628906	50114.425781
1027.500977	49900.773438
1026.372070	50432.960938
1025.243164	50338.441406
1024.114258	50693.871094
1022.985352	50087.781250
1021.855469	49706.804688
1020.725586	50249.472656
1019.595703	50036.089844
1018.465820	49754.496094
1017.334961	50169.046875
1016.204102	49861.113281
1015.073242	50000.246094
1013.942383	49980.832031
1012.810547	50126.480469
1011.678711	49990.425781
1010.546875	50234.992188
1009.415039	49956.007813
1008.282227	50127.910156
1007.150391	50444.832031
1006.017578	50581.386719
1004.883789	50832.144531
1003.750977	51432.121094
1002.617188	51552.992188
1001.483398	51682.589844
1000.349609	51285.183594
999.214844	50894.531250
998.080078	50644.496094
996.945313	50721.503906
995.810547	50508.902344
994.674805	50158.210938
993.540039	49722.144531
992.404297	50027.277344
991.267578	50056.097656
990.131836	50242.683594
988.995117	50356.886719
987.858398	50065.796875
986.721680	50035.441406
985.583984	50256.894531
984.446289	49744.906250
983.308594	50182.996094
982.170898	49931.625000
981.033203	49682.542969
979.894531	50135.667969
978.755859	49751.062500
977.617188	49834.488281
976.477539	50040.281250
975.337891	50298.433594
974.198242	49977.472656
973.058594	49936.253906
971.918945	50085.054688
970.778320	49825.472656
969.637695	50319.144531
968.497070	50122.914063
967.355469	50096.964844
966.214844	49992.488281
965.073242	50346.097656
963.930664	50298.300781
962.789063	50165.492188
961.646484	50244.179688
960.503906	50477.558594
959.361328	49993.992188
