#Wave		#Intensity
1800.532227	71027.156250
1799.562500	70608.453125
1798.592773	71043.781250
1797.623047	71481.492188
1796.653320	70697.054688
1795.682617	70870.289063
1794.712891	71071.679688
1793.742188	70795.773438
1792.771484	70943.226563
1791.800781	70726.437500
1790.829102	71214.851563
1789.858398	71067.304688
1788.886719	71496.507813
1787.915039	71143.945313
1786.943359	70932.445313
1785.970703	71586.812500
1784.999023	71242.117188
1784.026367	71381.492188
1783.053711	71410.734375
1782.081055	71329.898438
1781.107422	71062.289063
1780.134766	71401.132813
1779.161133	71315.218750
1778.187500	71809.875000
1777.213867	71846.632813
1776.239258	71589.398438
1775.265625	71278.578125
1774.291016	71729.390625
1773.316406	71983.289063
1772.341797	72104.250000
1771.366211	71967.226563
1770.391602	72348.578125
1769.416016	71940.953125
1768.440430	72031.187500
1767.464844	72412.289063
1766.488281	72553.414063
1765.512695	71778.742188
1764.536133	72514.140625
1763.559570	72479.210938
1762.583008	72357.617188
1761.605469	72478.203125
1760.628906	72889.226563
1759.651367	72772.703125
1758.673828	72740.289063
1757.696289	72499.054688
1756.717773	72736.585938
1755.740234	72803.460938
1754.761719	73689.851563
1753.783203	72619.046875
1752.804688	73217.617188
1751.825195	72719.648438
1750.846680	73467.992188
1749.867188	73003.210938
1748.887695	74366.382813
1747.908203	73322.125000
1746.927734	73315.031250
1745.947266	73450.218750
1744.967773	74179.710938
1743.987305	73778.812500
1743.005859	73784.320313
1742.025391	73878.664063
1741.043945	74295.296875
1740.063477	73541.968750
1739.081055	73796.125000
1738.099609	74308.898438
1737.118164	74281.296875
1736.135742	73880.992188
1735.153320	74185.562500
1734.170898	74223.882813
1733.188477	74198.835938
1732.206055	74196.601563
1731.222656	74827.593750
1730.239258	74637.820313
1729.255859	74569.656250
1728.272461	74683.773438
1727.288086	74962.351563
1726.304688	74595.562500
1725.320313	74494.554688
1724.335938	75450.859375
1723.350586	75349.710938
1722.366211	75048.859375
1721.380859	74859.351563
1720.395508	75036.375000
1719.410156	74510.875000
1718.424805	75241.148438
1717.439453	75289.164063
1716.453125	75670.492188
1715.466797	75725.968750
1714.480469	75839.476563
1713.494141	76104.359375
1712.506836	76106.710938
1711.519531	75617.117188
1710.533203	75798.640625
1709.544922	75803.562500
1708.557617	75473.156250
1707.570313	75846.156250
1706.582031	75704.882813
1705.593750	75732.476563
1704.605469	76543.531250
1703.616211	76384.554688
1702.627930	76311.257813
1701.638672	76514.929688
1700.649414	76612.796875
1699.660156	76343.187500
1698.670898	76456.132813
1697.680664	76511.171875
1696.690430	76875.546875
1695.700195	76334.507813
1694.709961	76912.460938
1693.719727	76386.703125
1692.728516	77366.507813
1691.738281	76986.585938
1690.747070	76451.062500
1689.754883	77254.445313
1688.763672	77469.890625
1687.771484	77085.218750
1686.780273	77900.523438
1685.788086	77413.015625
1684.794922	78109.984375
1683.802734	77447.023438
1682.809570	77544.273438
1681.817383	78090.328125
1680.823242	78232.523438
1679.830078	77870.843750
1678.836914	78228.531250
1677.842773	78252.843750
1676.848633	78422.429688
1675.854492	78399.093750
1674.860352	78293.132813
1673.865234	78362.453125
1672.871094	78148.898438
1671.875977	78125.625000
1670.880859	78730.351563
1669.885742	78621.898438
1668.889648	79321.312500
1667.893555	79070.257813
1666.897461	78824.296875
1665.901367	79508.234375
1664.905273	78949.898438
1663.908203	79516.101563
1662.912109	79500.039063
1661.915039	79301.671875
1660.917969	79315.617188
1659.919922	79526.773438
1658.922852	80119.718750
1657.924805	79262.570313
1656.926758	79570.890625
1655.928711	80091.117188
1654.929688	80000.117188
1653.931641	80826.726563
1652.932617	80266.929688
1651.933594	80627.062500
1650.934570	80635.687500
1649.934570	80669.210938
1648.935547	81103.757813
1647.935547	81555.554688
1646.935547	81885.156250
1645.935547	82102.601563
1644.934570	81891.867188
1643.933594	82465.046875
1642.933594	82689.695313
1641.931641	83730.101563
1640.930664	83631.101563
1639.929688	84389.929688
1638.927734	85280.195313
1637.925781	85128.726563
1636.923828	85109.015625
1635.921875	86343.914063
1634.918945	86229.562500
1633.916016	86912.414063
1632.913086	86837.718750
1631.910156	87614.492188
1630.907227	87514.851563
1629.903320	88298.609375
1628.900391	87787.039063
1627.896484	88141.312500
1626.891602	88304.492188
1625.887695	88110.578125
1624.882813	88444.726563
1623.878906	88560.640625
1622.874023	88602.164063
1621.868164	89114.367188
1620.863281	89190.429688
1619.857422	89135.210938
1618.851563	88948.789063
1617.845703	89307.015625
1616.839844	88925.117188
1615.833008	89787.945313
1614.827148	89574.320313
1613.820313	90149.750000
1612.813477	90020.203125
1611.805664	90152.757813
1610.798828	89813.148438
1609.791016	90121.148438
1608.783203	90814.460938
1607.775391	90845.445313
1606.767578	91135.750000
1605.758789	90823.414063
1604.750000	90866.710938
1603.741211	91425.859375
1602.732422	91866.320313
1601.723633	91897.023438
1600.713867	91372.679688
1599.704102	92357.921875
1598.694336	92908.773438
1597.684570	92552.171875
1596.673828	93164.375000
1595.664063	93660.500000
1594.653320	93929.750000
1593.642578	94203.812500
1592.630859	94517.156250
1591.620117	95091.375000
1590.608398	94990.828125
1589.596680	94651.570313
1588.584961	95050.679688
1587.573242	95166.687500
1586.560547	95105.539063
1585.547852	95346.898438
1584.535156	95625.039063
1583.522461	96099.726563
1582.509766	95758.226563
1581.496094	96367.835938
1580.482422	96515.312500
1579.468750	97291.539063
1578.455078	98131.289063
1577.440430	97571.171875
1576.426758	97936.742188
1575.412109	98299.703125
1574.397461	98569.257813
1573.381836	99047.234375
1572.367188	100103.875000
1571.351563	100186.515625
1570.335938	100207.812500
1569.320313	100596.796875
1568.304688	101326.281250
1567.288086	102263.742188
1566.271484	102360.523438
1565.254883	102290.710938
1564.238281	103097.593750
1563.221680	102971.335938
1562.204102	102761.898438
1561.186523	102586.796875
1560.168945	102365.273438
1559.151367	101588.523438
1558.132813	101829.539063
1557.115234	100884.476563
1556.096680	100460.539063
1555.078125	100535.406250
1554.058594	99329.671875
1553.040039	99565.992188
1552.020508	98971.648438
1551.000977	98318.914063
1549.981445	98191.445313
1548.960938	98120.171875
1547.941406	97782.867188
1546.920898	97936.210938
1545.900391	97935.773438
1544.879883	98062.171875
1543.858398	97837.320313
1542.836914	98241.656250
1541.815430	98384.968750
1540.793945	98194.296875
1539.772461	98488.632813
1538.750000	97917.929688
1537.728516	98762.695313
1536.706055	98421.085938
1535.683594	98325.531250
1534.660156	99018.757813
1533.637695	99142.156250
1532.614258	98518.453125
1531.590820	99267.148438
1530.566406	99383.109375
1529.542969	99635.203125
1528.518555	99597.851563
1527.494141	100071.007813
1526.469727	100026.281250
1525.445313	100341.187500
1524.420898	101333.781250
1523.395508	101412.679688
1522.370117	101440.546875
1521.344727	101839.867188
1520.318359	101806.937500
1519.292969	100856.625000
1518.266602	101061.687500
1517.240234	101591.742188
1516.213867	101910.554688
1515.186523	102217.109375
1514.159180	102368.367188
1513.131836	102771.648438
1512.104492	103392.875000
1511.077148	104059.875000
1510.049805	103689.773438
1509.021484	103811.476563
1507.993164	104061.468750
1506.964844	104621.242188
1505.935547	105134.789063
1504.907227	105314.156250
1503.877930	105350.695313
1502.848633	105525.093750
1501.818359	105215.710938
1500.789063	104729.929688
1499.758789	106130.031250
1498.728516	106456.375000
1497.698242	106840.585938
1496.667969	106879.132813
1495.636719	107869.390625
1494.606445	108173.351563
1493.575195	107846.984375
1492.542969	108322.218750
1491.511719	108623.468750
1490.479492	109607.500000
1489.448242	109768.421875
1488.415039	109627.765625
1487.382813	110191.343750
1486.350586	110212.187500
1485.317383	110985.125000
1484.284180	111087.726563
1483.250977	111592.695313
1482.216797	111181.968750
1481.183594	110855.710938
1480.149414	111114.757813
1479.115234	111717.992188
1478.081055	111526.601563
1477.045898	110921.335938
1476.011719	111358.195313
1474.976563	110606.453125
1473.941406	111074.445313
1472.905273	111150.281250
1471.870117	111572.281250
1470.833984	111907.562500
1469.797852	111447.242188
1468.761719	111114.437500
1467.725586	110752.945313
1466.688477	111220.195313
1465.651367	111331.859375
1464.614258	111321.031250
1463.577148	111036.578125
1462.539063	112074.507813
1461.501953	112013.125000
1460.463867	111661.515625
1459.424805	112017.539063
1458.386719	111658.867188
1457.347656	111022.242188
1456.309570	110539.273438
1455.270508	110947.929688
1454.230469	110649.640625
1453.191406	110236.484375
1452.151367	109507.375000
1451.111328	110428.281250
1450.071289	109917.257813
1449.031250	110282.421875
1447.990234	110164.062500
1446.950195	109775.398438
1445.909180	109611.734375
1444.867188	110237.296875
1443.826172	110439.406250
1442.784180	109984.054688
1441.742188	109913.664063
1440.700195	109914.976563
1439.658203	109935.390625
1438.616211	109490.046875
1437.573242	109493.812500
1436.530273	109347.164063
1435.487305	109668.421875
1434.443359	110302.171875
1433.400391	109353.718750
1432.356445	109894.226563
1431.312500	110799.414063
1430.267578	110590.640625
1429.223633	110749.085938
1428.178711	111460.453125
1427.133789	111573.367188
1426.088867	112622.585938
1425.043945	112661.359375
1423.998047	113638.453125
1422.952148	114196.070313
1421.906250	114029.742188
1420.860352	114503.726563
1419.813477	114701.476563
1418.767578	115170.359375
1417.720703	115719.914063
1416.673828	116809.085938
1415.625977	117588.703125
1414.579102	118436.929688
1413.531250	118455.328125
1412.483398	120289.148438
1411.435547	119551.664063
1410.386719	121021.070313
1409.337891	121917.554688
1408.290039	122730.562500
1407.240234	123453.023438
1406.191406	124037.531250
1405.141602	124315.695313
1404.092773	125490.476563
1403.042969	125319.937500
1401.992188	126460.812500
1400.942383	126797.492188
1399.891602	127134.031250
1398.840820	127591.281250
1397.790039	128868.140625
1396.739258	129715.695313
1395.687500	130037.117188
1394.635742	131336.343750
1393.583984	132017.125000
1392.532227	132868.031250
1391.480469	134265.234375
1390.427734	136594.046875
1389.375000	136352.984375
1388.322266	138581.046875
1387.269531	138791.281250
1386.215820	139169.250000
1385.162109	140249.031250
1384.108398	140858.125000
1383.054688	139907.656250
1382.000977	140752.750000
1380.946289	140681.187500
1379.891602	140024.109375
1378.836914	139626.953125
1377.782227	138722.531250
1376.726563	139684.937500
1375.670898	139436.687500
1374.615234	139252.234375
1373.559570	139721.046875
1372.502930	139767.640625
1371.447266	140163.062500
1370.390625	140105.843750
1369.333984	140182.921875
1368.276367	139689.890625
1367.219727	139051.031250
1366.162109	138697.343750
1365.104492	138440.312500
1364.046875	136523.984375
1362.988281	135159.093750
1361.929688	134900.578125
1360.871094	133068.468750
1359.812500	132154.328125
1358.753906	131920.078125
1357.694336	130884.289063
1356.634766	129898.273438
1355.575195	130797.265625
1354.515625	129485.093750
1353.456055	129141.210938
1352.395508	129074.578125
1351.334961	129522.164063
1350.274414	129415.562500
1349.212891	129445.117188
1348.152344	129566.164063
1347.090820	129682.460938
1346.029297	130274.843750
1344.966797	130817.726563
1343.905273	130907.875000
1342.842773	131244.109375
1341.780273	130959.156250
1340.717773	130315.812500
1339.655273	129644.609375
1338.591797	129748.929688
1337.528320	129164.750000
1336.464844	128222.617188
1335.401367	127297.242188
1334.336914	126014.203125
1333.272461	126004.476563
1332.208008	123657.875000
1331.143555	122846.445313
1330.079102	122414.140625
1329.013672	121586.921875
1327.948242	121197.117188
1326.882813	120354.125000
1325.817383	120228.718750
1324.750977	120610.234375
1323.684570	120758.046875
1322.618164	120557.898438
1321.551758	120364.828125
1320.484375	119915.109375
1319.417969	119866.906250
1318.350586	118255.671875
1317.282227	117888.273438
1316.214844	117199.218750
1315.146484	116941.765625
1314.079102	115978.117188
1313.009766	115096.437500
1311.941406	114799.945313
1310.873047	114778.453125
1309.803711	115444.039063
1308.734375	113815.703125
1307.665039	114392.726563
1306.594727	113710.273438
1305.525391	113309.679688
1304.455078	113893.406250
1303.384766	112602.007813
1302.313477	112813.523438
1301.243164	113459.750000
1300.171875	112587.679688
1299.100586	112847.851563
1298.028320	112176.093750
1296.957031	112440.875000
1295.884766	112092.328125
1294.812500	112454.546875
1293.740234	112419.570313
1292.667969	112825.656250
1291.594727	112351.976563
1290.521484	112045.539063
1289.448242	112444.476563
1288.375000	112666.960938
1287.300781	112288.750000
1286.226563	112177.304688
1285.152344	112775.195313
1284.078125	113120.226563
1283.003906	112649.523438
1281.928711	112827.640625
1280.853516	112723.117188
1279.778320	113438.328125
1278.703125	113187.859375
1277.626953	113791.562500
1276.550781	113013.500000
1275.474609	112948.343750
1274.398438	112924.843750
1273.321289	112825.023438
1272.245117	113023.515625
1271.167969	112637.062500
1270.089844	112659.843750
1269.012695	112264.367188
1267.934570	112000.726563
1266.856445	111984.343750
1265.778320	111573.070313
1264.700195	112159.359375
1263.621094	111699.734375
1262.541992	112608.843750
1261.462891	111805.500000
1260.383789	112338.171875
1259.304688	112206.367188
1258.224609	111807.132813
1257.144531	111917.554688
1256.064453	111744.414063
1254.983398	111949.273438
1253.902344	112490.421875
1252.822266	112547.601563
1251.740234	112091.179688
1250.659180	112256.625000
1249.578125	112065.171875
1248.496094	112647.125000
1247.414063	112858.359375
1246.331055	112931.453125
1245.249023	112611.179688
1244.166016	112997.039063
1243.083008	113332.148438
1242.000000	113471.718750
1240.916016	112813.742188
1239.833008	112911.984375
1238.749023	114025.585938
1237.665039	113441.375000
1236.580078	112294.804688
1235.496094	112218.562500
1234.411133	112532.562500
1233.326172	111542.929688
1232.241211	111180.078125
1231.155273	110668.257813
1230.069336	110596.992188
1228.983398	109938.750000
1227.897461	110090.031250
1226.811523	108852.273438
1225.724609	108916.617188
1224.637695	107920.171875
1223.550781	107753.328125
1222.463867	106771.265625
1221.375977	107003.109375
1220.288086	106241.367188
1219.200195	105596.648438
1218.112305	106192.398438
1217.023438	105582.265625
1215.934570	105599.078125
1214.845703	105883.437500
1213.756836	104855.343750
1212.667969	105564.882813
1211.578125	105462.828125
1210.488281	105571.007813
1209.398438	105030.390625
1208.307617	105293.914063
1207.217773	105194.257813
1206.126953	104868.625000
1205.036133	105157.101563
1203.944336	103939.351563
1202.853516	103290.195313
1201.761719	102985.742188
1200.669922	102441.953125
1199.578125	101367.125000
1198.485352	100185.601563
1197.392578	99576.625000
1196.299805	99713.007813
1195.207031	99204.617188
1194.114258	99238.515625
1193.020508	98894.375000
1191.926758	98787.156250
1190.833008	98568.437500
1189.739258	98488.625000
1188.644531	97883.250000
1187.549805	98149.375000
1186.455078	98754.265625
1185.360352	98003.664063
1184.264648	97833.093750
1183.168945	98078.523438
1182.073242	97726.203125
1180.977539	98069.234375
1179.880859	97576.218750
1178.785156	97810.117188
1177.688477	97807.781250
1176.590820	97455.851563
1175.494141	98163.960938
1174.396484	96958.906250
1173.298828	97272.070313
1172.201172	97619.117188
1171.103516	96691.570313
1170.004883	96852.671875
1168.906250	97172.367188
1167.807617	96705.531250
1166.708984	97534.914063
1165.609375	97249.414063
1164.510742	97403.398438
1163.411133	97376.171875
1162.310547	97396.484375
1161.210938	96961.843750
1160.110352	96608.843750
1159.009766	97500.335938
1157.909180	96606.750000
1156.807617	97226.476563
1155.707031	97135.968750
1154.605469	97319.023438
1153.502930	97703.148438
1152.401367	97022.828125
1151.298828	97546.898438
1150.197266	96096.679688
1149.093750	95805.515625
1147.991211	94724.273438
1146.887695	94519.281250
1145.785156	93693.757813
1144.681641	93387.523438
1143.577148	93207.734375
1142.473633	92662.656250
1141.369141	92178.679688
1140.264648	93191.812500
1139.160156	92617.765625
1138.054688	92830.398438
1136.949219	93097.007813
1135.843750	93591.000000
1134.738281	93834.804688
1133.632813	93911.890625
1132.526367	94193.789063
1131.419922	93638.328125
1130.313477	93584.882813
1129.207031	93790.164063
1128.099609	94173.031250
1126.992188	93721.468750
1125.884766	93357.765625
1124.777344	93356.109375
1123.668945	93197.125000
1122.560547	93217.953125
1121.452148	92791.750000
1120.343750	92226.468750
1119.234375	92687.570313
1118.125000	92129.273438
1117.015625	92403.898438
1115.906250	92880.359375
1114.796875	91404.765625
1113.686523	91836.367188
1112.576172	91875.328125
1111.465820	91703.515625
1110.354492	91601.257813
1109.243164	91245.789063
1108.132813	91136.937500
1107.020508	90916.109375
1105.909180	91114.210938
1104.796875	91077.093750
1103.684570	90831.781250
1102.572266	90658.187500
1101.459961	90860.625000
1100.346680	90517.054688
1099.233398	90225.062500
1098.120117	90476.648438
1097.006836	89869.515625
1095.892578	89977.984375
1094.778320	90242.851563
1093.664063	89924.390625
1092.549805	89800.421875
1091.435547	89263.281250
1090.320313	89423.101563
1089.205078	89444.421875
1088.088867	90030.468750
1086.973633	89955.671875
1085.857422	89557.382813
1084.741211	88356.171875
1083.625000	89454.898438
1082.507813	89001.195313
1081.391602	89174.132813
1080.274414	88861.093750
1079.157227	89470.742188
1078.039063	89703.601563
1076.920898	89457.460938
1075.802734	89120.101563
1074.684570	88455.585938
1073.566406	88766.359375
1072.447266	89119.273438
1071.328125	89047.046875
1070.208984	88961.492188
1069.089844	89100.609375
1067.969727	89043.976563
1066.849609	89345.304688
1065.729492	89221.945313
1064.609375	89196.421875
1063.488281	89386.414063
1062.367188	89116.500000
1061.246094	88664.585938
1060.125000	88665.820313
1059.002930	89313.054688
1057.881836	89089.976563
1056.759766	89452.804688
1055.636719	88972.421875
1054.514648	89312.929688
1053.391602	89367.210938
1052.268555	88807.320313
1051.145508	89021.281250
1050.021484	88240.070313
1048.897461	89236.203125
1047.773438	88758.757813
1046.649414	88837.414063
1045.525391	88749.968750
1044.400391	88994.625000
1043.275391	88891.679688
1042.150391	88698.031250
1041.024414	89442.546875
1039.899414	89012.171875
1038.773438	89404.664063
1037.646484	89511.757813
1036.520508	89132.468750
1035.393555	90258.421875
1034.266602	89664.789063
1033.139648	90001.468750
1032.012695	89995.648438
1030.884766	90095.820313
1029.756836	90237.890625
1028.628906	89898.710938
1027.500977	90583.632813
1026.372070	90551.187500
1025.243164	90690.812500
1024.114258	90552.492188
1022.985352	90191.523438
1021.855469	90126.101563
1020.725586	89902.015625
1019.595703	89316.632813
1018.465820	89918.960938
1017.334961	89811.773438
1016.204102	89603.335938
1015.073242	89346.546875
1013.942383	89880.093750
1012.810547	88897.085938
1011.678711	89511.906250
1010.546875	89638.093750
1009.415039	90245.882813
1008.282227	90231.117188
1007.150391	90148.210938
1006.017578	91039.023438
1004.883789	92344.773438
1003.750977	93364.351563
1002.617188	94174.820313
1001.483398	94416.148438
1000.349609	93528.828125
999.214844	92108.453125
998.080078	91193.453125
996.945313	90226.179688
995.810547	89970.078125
994.674805	89832.523438
993.540039	89212.601563
992.404297	88698.171875
991.267578	88685.890625
990.131836	89342.000000
988.995117	88499.203125
987.858398	88263.531250
986.721680	88347.695313
985.583984	87862.531250
984.446289	88925.257813
983.308594	88221.304688
982.170898	88027.492188
981.033203	87879.687500
979.894531	88298.437500
978.755859	87890.414063
977.617188	88164.671875
976.477539	88491.273438
975.337891	87825.578125
974.198242	88156.468750
