#Wave		#Intensity
1800.529297	-29.439062
1798.058594	-54.120308
1795.587891	29.745554
1793.115234	47.696877
1790.642578	28.000914
1788.169922	7.951143
1785.697266	-52.703171
1783.222656	20.153162
1780.746094	21.205843
1778.269531	-8.236840
1775.792969	65.568474
1773.316406	83.751030
1770.837891	114.687012
1768.357422	94.094460
1765.878906	69.235077
1763.398438	84.282059
1760.916016	72.980400
1758.435547	84.534767
1755.951172	45.707737
1753.468750	-15.351699
1750.984375	48.715366
1748.498047	-16.700134
1746.013672	6.915272
1743.527344	-29.728325
1741.039063	-7.432900
1738.550781	54.751839
1736.062500	119.783897
1733.574219	-67.380661
1731.083984	-23.555220
1728.591797	20.154320
1726.099609	-7.184546
1723.607422	9.388826
1721.115234	-15.044375
1718.621094	57.336102
1716.126953	-52.013386
1713.630859	19.279980
1711.134766	17.701490
1708.636719	-49.701660
1706.140625	47.441517
1703.640625	34.898964
1701.142578	35.346718
1698.642578	3.945022
1696.140625	76.148476
1693.640625	48.818237
1691.138672	-14.275459
1688.634766	-30.523775
1686.130859	8.000457
1683.626953	-17.059607
1681.121094	-27.128223
1678.615234	-17.238653
1676.109375	15.575698
1673.601563	103.068481
1671.093750	71.472343
1668.583984	35.021896
1666.074219	161.403336
1663.564453	171.765030
1661.052734	221.880463
1658.541016	395.978394
1656.027344	797.001404
1653.513672	1317.762695
1651.000000	2046.296997
1648.484375	2524.016357
1645.968750	2299.825439
1643.453125	1503.977783
1640.935547	864.017517
1638.417969	507.373627
1635.898438	238.049866
1633.378906	106.373795
1630.859375	96.413620
1628.337891	-42.814636
1625.816406	-21.888851
1623.292969	11.965872
1620.769531	0.522231
1618.246094	-132.138428
1615.720703	31.242290
1613.195313	18.161497
1610.669922	33.779522
1608.142578	35.696957
1605.613281	37.714565
1603.085938	140.278564
1600.556641	260.597626
1598.025391	351.417572
1595.494141	390.139343
1592.962891	257.804810
1590.429688	178.734131
1587.896484	189.248520
1585.363281	291.230072
1582.828125	296.967773
1580.292969	484.461334
1577.755859	656.214722
1575.218750	901.553101
1572.681641	857.390320
1570.142578	905.526428
1567.603516	769.368530
1565.062500	546.123108
1562.521484	307.404724
1559.980469	245.236847
1557.437500	180.232819
1554.894531	124.145264
1552.349609	138.622849
1549.804688	6.385751
1547.259766	13.187253
1544.712891	61.110901
1542.166016	39.655239
1539.619141	16.313507
1537.070313	14.530680
1534.519531	25.495596
1531.970703	21.862110
1529.417969	137.357391
1526.867188	83.047386
1524.314453	150.751511
1521.761719	237.965195
1519.207031	467.503876
1516.652344	848.984863
1514.095703	1390.061157
1511.539063	1874.359253
1508.982422	2058.503174
1506.423828	1864.891113
1503.865234	1441.783691
1501.306641	974.226379
1498.746094	692.744751
1496.185547	535.920837
1493.623047	212.060165
1491.060547	99.283272
1488.496094	82.777245
1485.931641	-44.375095
1483.367188	-35.503551
1480.800781	-112.966125
1478.234375	-63.248203
1475.667969	-0.908602
1473.099609	28.470648
1470.531250	-20.633560
1467.960938	3.009459
1465.390625	81.899124
1462.818359	105.589073
1460.246094	41.217953
1457.673828	99.844826
1455.099609	147.842484
1452.525391	141.700195
1449.951172	95.971817
1447.375000	108.320686
1444.796875	96.558441
1442.220703	128.332428
1439.642578	87.715195
1437.062500	209.372040
1434.482422	196.862732
1431.902344	234.595383
1429.320313	138.297577
1426.738281	153.011673
1424.154297	143.684174
1421.570313	308.850494
1418.986328	326.593140
1416.400391	167.193436
1413.814453	117.719177
1411.226563	0.014053
1408.638672	-4.969041
1406.050781	36.298119
1403.460938	90.118851
1400.871094	36.322994
1398.279297	130.633636
1395.687500	172.131149
1393.095703	245.380981
1390.501953	238.982758
1387.908203	207.720184
1385.312500	296.503448
1382.716797	449.589203
1380.119141	341.844727
1377.521484	427.900421
1374.923828	371.204407
1372.324219	431.517090
1369.724609	830.926514
1367.125000	1398.694946
1364.523438	2083.938965
1361.919922	2388.986328
1359.318359	1657.987793
1356.712891	1086.278687
1354.109375	778.866638
1351.503906	587.379517
1348.896484	446.745728
1346.291016	420.906006
1343.681641	207.089844
1341.074219	161.494308
1338.464844	242.935867
1335.853516	121.244759
1333.242188	67.433319
1330.630859	47.119453
1328.017578	135.561172
1325.404297	74.467072
1322.789063	229.710358
1320.173828	419.230255
1317.558594	558.279419
1314.941406	838.166687
1312.324219	1134.144653
1309.705078	1114.313965
1307.085938	917.761719
1304.466797	644.439636
1301.845703	562.341431
1299.224609	355.957947
1296.601563	375.766357
1293.978516	381.406525
1291.353516	250.484482
1288.728516	347.386902
1286.103516	258.436310
1283.476563	187.629898
1280.849609	122.625687
1278.220703	195.110474
1275.591797	245.833023
1272.962891	236.937973
1270.332031	215.807816
1267.701172	150.276398
1265.068359	111.331825
1262.435547	90.432236
1259.800781	79.998543
1257.166016	89.465691
1254.531250	194.393799
1251.894531	83.959053
1249.257813	95.431801
1246.619141	36.143211
1243.980469	-44.779133
1241.341797	4.553717
1238.701172	37.852715
1236.058594	24.019703
1233.417969	3.613364
1230.775391	20.922962
1228.130859	96.629761
1225.486328	112.037964
1222.839844	19.199921
1220.195313	-53.823441
1217.546875	-19.562454
1214.900391	-61.503143
1212.250000	-35.736687
1209.601563	56.720646
1206.951172	88.977791
1204.298828	57.330845
1201.648438	188.104523
1198.994141	138.561203
1196.341797	176.275757
1193.685547	235.510910
1191.031250	379.060730
1188.375000	417.487854
1185.718750	623.591370
1183.060547	656.201294
1180.400391	845.143250
1177.742188	688.427124
1175.082031	512.095825
1172.419922	313.357178
1169.757813	151.155121
1167.095703	145.142822
1164.431641	34.366673
1161.767578	-19.412848
1159.101563	-22.788694
1156.435547	-0.096069
1153.767578	1.025727
1151.101563	-8.210410
1148.431641	8.597708
1145.761719	10.377829
1143.091797	-10.317926
1140.419922	8.053411
1137.748047	227.594055
1135.076172	196.302765
1132.402344	250.605408
1129.726563	360.627411
1127.052734	408.114258
1124.375000	400.571106
1121.699219	380.828247
1119.019531	317.286835
1116.341797	213.700516
1113.662109	82.188805
1110.982422	115.992409
1108.300781	64.224373
1105.617188	-13.622027
1102.935547	-32.143631
1100.251953	4.893381
1097.566406	78.886757
1094.880859	38.671825
1092.193359	145.736450
1089.507813	203.504410
1086.818359	248.148865
1084.128906	183.378403
1081.439453	158.335526
1078.750000	49.903618
1076.058594	69.089699
1073.365234	-35.779228
1070.671875	68.248001
1067.978516	64.883446
1065.283203	37.385578
1062.587891	79.068520
1059.890625	128.002136
1057.193359	-5.047616
1054.494141	41.822502
1051.794922	-58.115997
1049.095703	21.735384
1046.394531	43.356709
1043.693359	65.789368
1040.990234	-73.117813
1038.287109	7.175706
1035.582031	-37.890808
1032.876953	12.711094
1030.169922	82.520378
1027.462891	-11.528645
1024.755859	112.342247
1022.046875	81.622589
1019.337891	16.850897
1016.626953	92.611763
1013.916016	-21.845572
1011.203125	75.790848
1008.490234	142.104721
1005.777344	198.232269
1003.062500	138.705002
1000.347656	143.357178
997.630859	92.966972
994.914063	79.227417
992.195313	87.448708
989.476563	38.860394
986.755859	38.798088
984.035156	62.511696
981.314453	45.940254
978.591797	1.929646
975.867188	74.969688
973.142578	7.203179
970.417969	6.183902
967.691406	-47.808922
964.964844	5.993433
962.238281	-29.682465
959.509766	76.127365
956.779297	-26.104921
954.048828	-19.720415
951.318359	28.628372
948.585938	37.790089
945.853516	-29.547049
943.119141	66.233604
940.384766	45.454346
937.648438	29.287880
934.912109	88.709831
932.175781	121.771477
929.437500	218.525253
926.697266	155.286285
923.957031	108.513023
921.216797	56.388878
918.474609	39.789276
915.732422	-10.315157
912.988281	84.905212
910.244141	9.572976
907.500000	57.726608
904.753906	31.583197
902.005859	94.374222
899.257813	-12.232884
896.509766	-36.247120
893.759766	-48.380207
891.009766	-21.483931
888.257813	-56.951843
885.505859	37.975388
882.751953	-37.989773
879.998047	5.535307
877.242188	-79.208046
874.486328	-14.715108
871.730469	-53.129921
868.972656	-84.194588
866.214844	44.630764
863.455078	-47.601730
860.693359	39.837463
857.933594	23.617367
855.169922	35.454857
852.408203	48.285221
849.644531	38.684101
846.878906	25.584814
844.113281	35.999020
841.347656	53.701576
838.580078	128.170349
835.810547	74.962616
833.041016	38.963200
830.271484	0.378816
827.500000	19.415102
824.728516	-37.830746
821.955078	32.557995
819.181641	-18.209011
816.408203	3.824187
813.630859	-59.306595
810.855469	-41.610909
808.078125	-38.201214
805.298828	-6.045509
802.521484	69.157448
799.740234	1.964095
796.958984	45.899452
794.177734	33.471115
791.394531	60.475639
788.611328	157.284088
785.826172	188.800064
783.041016	363.367767
780.255859	472.627991
777.466797	860.583496
774.679688	1016.126648
771.890625	835.923889
769.099609	795.990051
766.308594	645.480164
763.517578	341.688385
760.724609	118.365395
757.931641	118.930740
755.136719	61.602161
752.341797	55.993439
749.544922	45.956242
746.748047	-2.333510
743.949219	40.192856
741.150391	48.013924
738.349609	76.300911
735.548828	13.017975
732.748047	99.094154
729.945313	2.118206
727.140625	-45.041046
724.335938	-25.564629
721.531250	21.431709
718.724609	-39.826321
715.917969	-17.647310
713.109375	15.183123
710.300781	-21.119591
707.490234	-8.632174
704.679688	-53.698437
701.867188	-9.259935
699.054688	-1.105971
696.240234	46.025417
693.425781	42.748024
690.611328	14.762311
687.794922	-38.784595
684.976563	-25.948965
682.158203	40.838177
679.339844	-6.279937
676.519531	12.048423
673.697266	26.037506
670.875000	29.518412
668.052734	-71.871758
665.228516	2.378005
662.404297	57.293507
659.578125	76.159752
656.751953	31.707777
653.923828	-26.678181
651.095703	-17.992500
648.265625	-39.976330
645.435547	1.534029
642.603516	7.106099
639.771484	65.570587
636.939453	-5.047985
634.105469	-23.628302
631.269531	30.858738
628.433594	-29.554909
625.595703	12.920643
622.757813	40.603428
619.919922	156.129471
617.080078	646.141602
614.240234	1848.612427
611.398438	1824.519531
608.554688	877.278076
605.712891	277.537292
602.867188	111.618721
600.021484	84.152657
597.175781	-1.854698
594.328125	18.924778
591.480469	41.443745
588.630859	-18.225243
585.781250	-18.503769
582.931641	-33.726414
580.078125	6.810006
577.226563	-11.349220
574.373047	39.199715
571.517578	99.019157
568.662109	174.135757
565.804688	148.538208
562.947266	-11.736967
560.089844	0.854019
557.230469	1.443617
554.369141	84.829872
551.507813	-7.633376
548.646484	2.491810
