#Wave		#Intensity
1800.532227	66254.507813
1799.562500	66832.460938
1798.592773	66919.265625
1797.623047	66682.507813
1796.653320	66843.742188
1795.682617	66976.687500
1794.712891	66675.890625
1793.742188	66503.492188
1792.771484	66936.523438
1791.800781	66435.867188
1790.829102	66794.375000
1789.858398	66724.617188
1788.886719	66757.406250
1787.915039	67005.437500
1786.943359	66707.648438
1785.970703	66379.242188
1784.999023	66809.015625
1784.026367	66969.757813
1783.053711	67212.359375
1782.081055	66907.132813
1781.107422	67502.773438
1780.134766	67269.242188
1779.161133	66690.476563
1778.187500	67648.945313
1777.213867	67727.453125
1776.239258	67028.781250
1775.265625	67935.476563
1774.291016	67515.570313
1773.316406	67652.789063
1772.341797	66949.570313
1771.366211	67296.257813
1770.391602	67354.273438
1769.416016	67825.812500
1768.440430	67434.484375
1767.464844	67724.640625
1766.488281	67588.609375
1765.512695	68026.554688
1764.536133	67640.585938
1763.559570	67341.460938
1762.583008	67572.695313
1761.605469	67681.492188
1760.628906	67945.679688
1759.651367	67738.437500
1758.673828	68038.164063
1757.696289	68095.828125
1756.717773	68420.820313
1755.740234	68119.437500
1754.761719	68253.398438
1753.783203	68318.601563
1752.804688	68587.296875
1751.825195	68347.156250
1750.846680	68302.929688
1749.867188	68785.039063
1748.887695	68489.062500
1747.908203	68477.867188
1746.927734	68121.078125
1745.947266	68513.906250
1744.967773	68614.453125
1743.987305	68867.335938
1743.005859	68543.757813
1742.025391	69126.546875
1741.043945	68704.054688
1740.063477	68700.414063
1739.081055	69018.968750
1738.099609	69299.343750
1737.118164	68927.851563
1736.135742	68642.718750
1735.153320	68781.031250
1734.170898	68713.992188
1733.188477	69483.179688
1732.206055	69456.554688
1731.222656	68966.414063
1730.239258	69593.257813
1729.255859	69305.828125
1728.272461	69689.328125
1727.288086	68827.476563
1726.304688	69390.570313
1725.320313	69753.578125
1724.335938	69178.039063
1723.350586	69998.656250
1722.366211	69719.109375
1721.380859	69856.765625
1720.395508	69966.554688
1719.410156	69533.039063
1718.424805	70079.898438
1717.439453	69899.101563
1716.453125	69743.625000
1715.466797	69873.507813
1714.480469	69708.000000
1713.494141	69845.406250
1712.506836	69884.335938
1711.519531	70490.875000
1710.533203	69692.273438
1709.544922	70220.421875
1708.557617	69460.007813
1707.570313	70023.273438
1706.582031	70306.570313
1705.593750	70448.640625
1704.605469	70061.617188
1703.616211	70543.695313
1702.627930	70416.171875
1701.638672	70563.125000
1700.649414	70334.960938
1699.660156	70851.812500
1698.670898	70392.179688
1697.680664	70511.335938
1696.690430	70366.343750
1695.700195	69844.210938
1694.709961	70984.125000
1693.719727	70633.000000
1692.728516	70375.000000
1691.738281	70755.296875
1690.747070	70416.976563
1689.754883	70385.203125
1688.763672	70516.664063
1687.771484	71014.609375
1686.780273	70914.953125
1685.788086	71161.648438
1684.794922	71220.070313
1683.802734	70959.867188
1682.809570	71171.281250
1681.817383	71051.617188
1680.823242	71543.710938
1679.830078	71203.429688
1678.836914	70868.296875
1677.842773	71482.890625
1676.848633	71330.687500
1675.854492	71171.039063
1674.860352	70898.765625
1673.865234	71144.820313
1672.871094	71458.359375
1671.875977	71183.679688
1670.880859	72027.500000
1669.885742	71567.695313
1668.889648	71825.851563
1667.893555	71846.359375
1666.897461	71899.359375
1665.901367	72042.304688
1664.905273	72137.710938
1663.908203	71938.257813
1662.912109	71993.671875
1661.915039	71921.695313
1660.917969	71674.953125
1659.919922	72119.820313
1658.922852	72137.695313
1657.924805	72679.601563
1656.926758	72817.109375
1655.928711	72303.507813
1654.929688	72822.601563
1653.931641	72396.468750
1652.932617	73147.164063
1651.933594	72845.750000
1650.934570	72848.468750
1649.934570	72771.460938
1648.935547	73404.382813
1647.935547	72796.820313
1646.935547	73018.640625
1645.935547	73511.710938
1644.934570	73643.695313
1643.933594	74004.546875
1642.933594	73937.328125
1641.931641	74238.273438
1640.930664	74096.421875
1639.929688	74655.781250
1638.927734	74663.054688
1637.925781	74473.968750
1636.923828	75117.382813
1635.921875	75030.140625
1634.918945	75951.367188
1633.916016	76109.828125
1632.913086	76335.257813
1631.910156	75607.375000
1630.907227	75740.976563
1629.903320	76524.632813
1628.900391	76407.421875
1627.896484	76796.250000
1626.891602	77207.226563
1625.887695	76901.507813
1624.882813	77285.023438
1623.878906	77276.804688
1622.874023	77437.070313
1621.868164	77602.234375
1620.863281	77571.648438
1619.857422	78118.054688
1618.851563	77827.406250
1617.845703	77388.359375
1616.839844	78125.015625
1615.833008	77849.375000
1614.827148	77952.343750
1613.820313	78045.367188
1612.813477	77453.375000
1611.805664	78070.585938
1610.798828	77832.289063
1609.791016	78011.742188
1608.783203	78514.789063
1607.775391	78773.070313
1606.767578	78870.703125
1605.758789	78652.218750
1604.750000	79307.781250
1603.741211	78699.296875
1602.732422	79322.492188
1601.723633	79461.835938
1600.713867	79060.890625
1599.704102	79760.070313
1598.694336	80140.875000
1597.684570	80186.242188
1596.673828	80096.023438
1595.664063	80146.296875
1594.653320	80521.773438
1593.642578	80347.773438
1592.630859	81050.593750
1591.620117	80627.859375
1590.608398	80436.695313
1589.596680	81414.718750
1588.584961	80576.281250
1587.573242	81093.796875
1586.560547	80755.085938
1585.547852	81599.437500
1584.535156	81418.117188
1583.522461	80703.414063
1582.509766	81249.851563
1581.496094	81022.015625
1580.482422	82057.054688
1579.468750	81686.671875
1578.455078	81355.726563
1577.440430	82230.460938
1576.426758	82682.609375
1575.412109	82177.390625
1574.397461	82609.726563
1573.381836	82987.906250
1572.367188	83824.609375
1571.351563	83422.546875
1570.335938	83986.656250
1569.320313	83437.640625
1568.304688	84332.367188
1567.288086	84249.054688
1566.271484	84471.992188
1565.254883	84050.664063
1564.238281	84973.906250
1563.221680	84591.812500
1562.204102	85441.125000
1561.186523	85661.125000
1560.168945	85854.117188
1559.151367	84400.648438
1558.132813	85249.281250
1557.115234	85038.750000
1556.096680	85175.453125
1555.078125	84390.585938
1554.058594	83654.914063
1553.040039	83158.984375
1552.020508	83215.328125
1551.000977	82927.281250
1549.981445	82417.132813
1548.960938	83022.882813
1547.941406	82254.187500
1546.920898	82498.546875
1545.900391	82376.820313
1544.879883	81762.390625
1543.858398	81484.765625
1542.836914	82143.578125
1541.815430	81436.921875
1540.793945	81751.804688
1539.772461	81878.906250
1538.750000	82088.796875
1537.728516	81991.671875
1536.706055	82250.148438
1535.683594	81790.226563
1534.660156	82883.625000
1533.637695	82404.281250
1532.614258	82467.773438
1531.590820	82964.289063
1530.566406	82818.445313
1529.542969	82983.945313
1528.518555	83317.132813
1527.494141	83042.453125
1526.469727	83100.851563
1525.445313	82697.531250
1524.420898	83185.968750
1523.395508	82984.390625
1522.370117	82863.023438
1521.344727	83647.328125
1520.318359	83494.312500
1519.292969	83581.617188
1518.266602	83945.500000
1517.240234	83773.101563
1516.213867	83986.406250
1515.186523	84063.828125
1514.159180	84293.945313
1513.131836	83947.062500
1512.104492	84157.718750
1511.077148	84838.343750
1510.049805	84784.671875
1509.021484	85157.289063
1507.993164	84316.570313
1506.964844	85011.109375
1505.935547	85197.054688
1504.907227	84889.242188
1503.877930	84552.507813
1502.848633	85098.851563
1501.818359	85504.695313
1500.789063	84960.078125
1499.758789	85805.765625
1498.728516	85580.351563
1497.698242	85741.671875
1496.667969	86009.226563
1495.636719	86709.054688
1494.606445	86319.390625
1493.575195	86487.656250
1492.542969	86293.726563
1491.511719	86167.460938
1490.479492	86494.898438
1489.448242	86945.234375
1488.415039	87260.312500
1487.382813	86393.562500
1486.350586	87499.460938
1485.317383	87442.976563
1484.284180	87531.117188
1483.250977	87681.867188
1482.216797	87863.867188
1481.183594	88250.531250
1480.149414	88213.187500
1479.115234	88597.195313
1478.081055	88969.007813
1477.045898	89066.304688
1476.011719	89976.843750
1474.976563	89515.757813
1473.941406	89997.695313
1472.905273	89601.718750
1471.870117	90263.742188
1470.833984	89764.500000
1469.797852	89335.148438
1468.761719	89794.976563
1467.725586	89949.531250
1466.688477	89861.437500
1465.651367	89694.132813
1464.614258	89894.210938
1463.577148	90041.398438
1462.539063	89314.992188
1461.501953	90165.218750
1460.463867	89702.945313
1459.424805	90413.625000
1458.386719	89575.031250
1457.347656	90048.101563
1456.309570	90391.546875
1455.270508	89745.156250
1454.230469	89472.773438
1453.191406	89471.179688
1452.151367	89404.921875
1451.111328	88929.242188
1450.071289	88427.421875
1449.031250	88447.562500
1447.990234	88974.984375
1446.950195	88605.031250
1445.909180	88182.601563
1444.867188	88592.554688
1443.826172	88665.218750
1442.784180	88840.625000
1441.742188	88690.929688
1440.700195	89284.414063
1439.658203	88931.609375
1438.616211	88965.890625
1437.573242	89195.953125
1436.530273	89304.164063
1435.487305	89235.679688
1434.443359	89396.328125
1433.400391	89879.015625
1432.356445	90146.804688
1431.312500	89651.265625
1430.267578	89501.679688
1429.223633	90281.937500
1428.178711	90191.867188
1427.133789	90337.750000
1426.088867	90095.210938
1425.043945	90464.960938
1423.998047	90546.382813
1422.952148	89563.398438
1421.906250	90616.257813
1420.860352	90135.867188
1419.813477	91097.734375
1418.767578	90538.921875
1417.720703	91019.804688
1416.673828	90984.429688
1415.625977	91136.890625
1414.579102	92047.617188
1413.531250	92180.781250
1412.483398	92480.210938
1411.435547	92223.601563
1410.386719	92703.414063
1409.337891	93482.234375
1408.290039	93384.632813
1407.240234	93854.398438
1406.191406	94819.984375
1405.141602	95191.960938
1404.092773	95549.546875
1403.042969	96037.429688
1401.992188	96143.320313
1400.942383	96661.695313
1399.891602	97478.507813
1398.840820	98664.679688
1397.790039	99677.398438
1396.739258	100647.046875
1395.687500	101611.554688
1394.635742	101860.546875
1393.583984	104202.234375
1392.532227	103908.554688
1391.480469	104329.648438
1390.427734	105758.468750
1389.375000	106330.390625
1388.322266	107706.164063
1387.269531	108171.031250
1386.215820	108775.179688
1385.162109	109095.453125
1384.108398	109892.914063
1383.054688	110316.757813
1382.000977	111047.492188
1380.946289	112420.265625
1379.891602	112125.539063
1378.836914	112678.375000
1377.782227	112520.593750
1376.726563	112450.171875
1375.670898	112575.578125
1374.615234	111632.460938
1373.559570	111090.617188
1372.502930	111235.070313
1371.447266	110712.375000
1370.390625	109567.718750
1369.333984	110035.171875
1368.276367	108328.101563
1367.219727	108147.921875
1366.162109	107383.828125
1365.104492	106923.742188
1364.046875	106819.265625
1362.988281	105804.101563
1361.929688	105361.078125
1360.871094	105433.398438
1359.812500	104703.703125
1358.753906	104202.382813
1357.694336	104566.375000
1356.634766	104185.148438
1355.575195	103656.031250
1354.515625	103345.617188
1353.456055	102737.015625
1352.395508	102887.203125
1351.334961	102722.695313
1350.274414	102433.835938
1349.212891	102583.976563
1348.152344	102844.328125
1347.090820	102766.742188
1346.029297	102954.234375
1344.966797	102684.351563
1343.905273	103216.414063
1342.842773	102876.257813
1341.780273	102449.523438
1340.717773	102076.851563
1339.655273	101671.531250
1338.591797	101069.632813
1337.528320	100306.406250
1336.464844	99590.312500
1335.401367	98614.695313
1334.336914	98432.796875
1333.272461	97095.156250
1332.208008	96974.460938
1331.143555	95911.296875
1330.079102	96242.164063
1329.013672	95088.406250
1327.948242	94673.703125
1326.882813	94097.929688
1325.817383	94258.320313
1324.750977	94173.382813
1323.684570	93366.851563
1322.618164	93251.773438
1321.551758	93510.226563
1320.484375	92765.000000
1319.417969	92377.085938
1318.350586	92229.625000
1317.282227	92058.890625
1316.214844	91897.546875
1315.146484	91078.789063
1314.079102	90996.960938
1313.009766	90581.898438
1311.941406	90178.656250
1310.873047	90446.476563
1309.803711	90711.851563
1308.734375	90392.640625
1307.665039	90394.835938
1306.594727	90036.242188
1305.525391	89945.414063
1304.455078	90064.015625
1303.384766	90061.601563
1302.313477	89552.187500
1301.243164	89177.843750
1300.171875	90003.187500
1299.100586	89484.789063
1298.028320	89129.265625
1296.957031	89268.734375
1295.884766	89436.015625
1294.812500	89377.953125
1293.740234	89166.671875
1292.667969	89039.046875
1291.594727	88486.750000
1290.521484	89271.210938
1289.448242	89656.312500
1288.375000	88765.585938
1287.300781	88202.195313
1286.226563	88742.601563
1285.152344	88761.242188
1284.078125	88749.734375
1283.003906	88589.945313
1281.928711	88360.726563
1280.853516	88666.593750
1279.778320	88770.875000
1278.703125	88453.765625
1277.626953	88625.164063
1276.550781	88141.593750
1275.474609	89125.054688
1274.398438	87908.304688
1273.321289	88507.492188
1272.245117	88463.640625
1271.167969	88029.125000
1270.089844	88202.632813
1269.012695	88138.062500
1267.934570	88870.546875
1266.856445	88364.687500
1265.778320	88718.085938
1264.700195	88168.585938
1263.621094	88588.804688
1262.541992	89232.710938
1261.462891	88625.750000
1260.383789	88351.226563
1259.304688	88824.085938
1258.224609	88821.726563
1257.144531	88662.585938
1256.064453	88706.351563
1254.983398	89459.867188
1253.902344	89028.804688
1252.822266	89176.109375
1251.740234	89279.578125
1250.659180	89339.257813
1249.578125	89675.156250
1248.496094	89780.750000
1247.414063	90275.179688
1246.331055	89729.507813
1245.249023	90320.343750
1244.166016	90490.078125
1243.083008	89763.054688
1242.000000	89955.812500
1240.916016	89571.632813
1239.833008	89725.281250
1238.749023	89791.562500
1237.665039	89586.781250
1236.580078	89219.046875
1235.496094	89147.625000
1234.411133	88787.015625
1233.326172	89108.125000
1232.241211	88414.968750
1231.155273	87937.726563
1230.069336	88001.937500
1228.983398	87800.125000
1227.897461	87550.250000
1226.811523	87321.101563
1225.724609	87121.835938
1224.637695	86780.601563
1223.550781	86668.562500
1222.463867	86643.593750
1221.375977	86112.617188
1220.288086	86209.085938
1219.200195	86470.289063
1218.112305	85843.562500
1217.023438	86386.109375
1215.934570	86306.304688
1214.845703	87004.015625
1213.756836	86416.554688
1212.667969	86044.187500
1211.578125	86880.906250
1210.488281	87008.976563
1209.398438	86501.929688
1208.307617	86451.867188
1207.217773	86134.664063
1206.126953	86041.312500
1205.036133	85747.140625
1203.944336	85176.960938
1202.853516	85131.765625
1201.761719	84657.750000
1200.669922	84407.421875
1199.578125	84494.648438
1198.485352	83811.328125
1197.392578	84158.445313
1196.299805	83338.750000
1195.207031	82856.562500
1194.114258	83196.812500
1193.020508	83439.000000
1191.926758	82715.742188
1190.833008	83208.304688
1189.739258	82694.757813
1188.644531	83623.968750
1187.549805	83356.218750
1186.455078	82604.148438
1185.360352	83575.976563
1184.264648	83415.250000
1183.168945	83656.882813
1182.073242	83655.265625
1180.977539	83321.929688
1179.880859	83520.265625
1178.785156	83493.671875
1177.688477	83131.054688
1176.590820	83267.992188
1175.494141	83148.406250
1174.396484	82693.039063
1173.298828	82408.000000
1172.201172	82497.328125
1171.103516	82366.640625
1170.004883	82952.445313
1168.906250	81840.218750
1167.807617	82337.492188
1166.708984	82261.312500
1165.609375	82214.601563
1164.510742	82374.007813
1163.411133	82682.796875
1162.310547	82914.468750
1161.210938	82414.968750
1160.110352	82341.093750
1159.009766	82907.531250
1157.909180	82494.281250
1156.807617	81190.164063
1155.707031	82002.921875
1154.605469	82548.578125
1153.502930	82097.312500
1152.401367	82391.898438
1151.298828	81884.359375
1150.197266	81331.867188
1149.093750	80881.210938
1147.991211	80880.023438
1146.887695	80303.242188
1145.785156	80013.296875
1144.681641	79441.445313
1143.577148	79117.960938
1142.473633	79987.679688
1141.369141	79238.039063
1140.264648	79775.960938
1139.160156	78783.250000
1138.054688	80321.562500
1136.949219	79781.984375
1135.843750	79497.164063
1134.738281	79644.843750
1133.632813	79941.062500
1132.526367	79867.976563
1131.419922	79675.632813
1130.313477	80124.648438
1129.207031	80301.257813
1128.099609	80581.257813
1126.992188	80215.757813
1125.884766	80309.039063
1124.777344	79945.984375
1123.668945	79846.015625
1122.560547	79618.007813
1121.452148	79920.226563
1120.343750	79218.414063
1119.234375	79729.406250
1118.125000	79360.171875
1117.015625	79834.992188
1115.906250	79578.078125
1114.796875	79247.226563
1113.686523	79560.265625
1112.576172	78942.500000
1111.465820	79457.242188
1110.354492	79660.187500
1109.243164	79349.812500
1108.132813	79393.593750
1107.020508	79231.250000
1105.909180	78750.929688
1104.796875	79341.171875
1103.684570	78357.296875
1102.572266	78971.984375
1101.459961	78697.984375
1100.346680	78395.007813
1099.233398	78799.015625
1098.120117	78932.242188
1097.006836	78841.812500
1095.892578	78199.250000
1094.778320	78763.859375
1093.664063	78412.070313
1092.549805	78317.335938
1091.435547	78845.812500
1090.320313	78331.187500
1089.205078	78560.250000
1088.088867	78146.343750
1086.973633	78765.890625
1085.857422	78430.203125
1084.741211	78870.953125
1083.625000	78695.953125
1082.507813	78327.031250
1081.391602	78756.367188
1080.274414	78866.781250
1079.157227	78540.382813
1078.039063	78686.437500
1076.920898	78478.257813
1075.802734	78608.664063
1074.684570	78091.085938
1073.566406	78085.718750
1072.447266	78805.898438
1071.328125	78175.109375
1070.208984	79161.914063
1069.089844	78769.296875
1067.969727	78350.156250
1066.849609	78542.585938
1065.729492	78337.046875
1064.609375	78562.718750
1063.488281	78343.921875
1062.367188	78371.789063
1061.246094	77817.757813
1060.125000	78380.835938
1059.002930	78444.179688
1057.881836	78556.320313
1056.759766	78364.398438
1055.636719	78452.093750
1054.514648	79038.812500
1053.391602	78997.695313
1052.268555	78865.695313
1051.145508	78452.218750
1050.021484	78610.703125
1048.897461	78589.632813
1047.773438	78920.789063
1046.649414	78715.828125
1045.525391	78681.453125
1044.400391	78983.585938
1043.275391	78550.750000
1042.150391	79040.875000
1041.024414	78398.015625
1039.899414	78994.132813
1038.773438	79061.437500
1037.646484	79261.375000
1036.520508	78862.156250
1035.393555	78845.445313
1034.266602	78853.046875
1033.139648	79795.117188
1032.012695	78578.882813
1030.884766	79388.109375
1029.756836	79247.648438
1028.628906	79261.757813
1027.500977	79357.500000
1026.372070	79424.523438
1025.243164	79436.359375
1024.114258	78912.265625
1022.985352	79757.671875
1021.855469	79967.820313
1020.725586	79161.820313
1019.595703	79233.171875
1018.465820	78848.453125
1017.334961	79104.843750
1016.204102	79094.671875
1015.073242	78721.218750
1013.942383	78885.015625
1012.810547	79174.179688
1011.678711	79476.414063
1010.546875	79547.539063
1009.415039	79565.843750
1008.282227	79570.937500
1007.150391	79714.531250
1006.017578	80275.664063
1004.883789	81359.562500
1003.750977	82207.906250
1002.617188	82823.054688
1001.483398	83088.757813
1000.349609	82328.992188
999.214844	81466.367188
998.080078	81229.593750
996.945313	80472.882813
995.810547	80477.726563
994.674805	80204.007813
993.540039	79941.367188
992.404297	79593.335938
991.267578	79030.632813
990.131836	79504.710938
988.995117	78924.734375
987.858398	79201.484375
986.721680	79773.757813
985.583984	79785.257813
984.446289	79494.656250
983.308594	79092.546875
982.170898	79182.945313
981.033203	79146.414063
979.894531	78943.664063
978.755859	79801.570313
977.617188	79060.929688
976.477539	78917.328125
975.337891	78544.320313
974.198242	79652.828125
973.058594	78799.234375
971.918945	78893.843750
970.778320	79278.812500
969.637695	79233.554688
968.497070	79035.531250
967.355469	79394.023438
966.214844	79285.484375
965.073242	79323.132813
963.930664	79061.992188
962.789063	79524.812500
961.646484	79588.523438
